cluster_idx	average mz	average RT	num spectra
4	300.203	5358.28	3
16	300.707	3243.56	2
19	301.211	3623.57	3
25	301.2	5052.91	5
27	301.349	5704.18	5
29	301.083	4603.87	3
31	301.007	4675.82	4
32	301.37	4876.38	2
44	301.795	5242.88	2
45	302.196	6137.63	2
53	303.493	3145.05	2
55	303.082	3687.06	4
56	302.847	4289.04	2
59	304.293	4481.64	3
76	303.661	4655.98	2
79	304.543	3599.04	2
82	304.66	3823.09	2
84	304.027	4261.36	2
87	304.017	4869.74	2
89	304.194	5317.37	2
97	304.838	3031.27	5
112	306.466	2714.44	3
124	305.872	5211.18	2
125	306.51	6764.96	3
130	306.831	4130.21	3
132	306.824	4344.26	2
134	306.681	5168.06	5
138	308.18	2523.24	3
140	307.716	3105.38	2
141	307.703	3061.58	2
145	308.084	4244.06	4
146	307.518	4114.24	2
148	307.716	4661.81	3
156	309.419	2200.37	2
164	309.404	3018.42	3
165	309.174	3279.79	2
167	310.255	4532.03	4
171	309.19	3785.07	3
177	308.676	4522.84	2
178	309.008	4562.93	2
179	309.168	4649.13	3
180	308.666	5203.02	2
182	309.003	5650.35	2
186	310.163	2163.59	2
191	310.137	3009.46	3
192	309.683	2912.05	2
200	309.931	4090.4	2
204	310.097	4500.04	5
205	310.355	4753.38	2
206	310.182	4858.65	3
208	310.182	5013.81	2
209	309.512	5112.57	3
210	310.174	5343.26	2
211	309.867	5567.01	2
215	311.189	3062.91	2
218	311.518	2993.77	2
226	311.958	4118.14	3
227	311.139	4660.4	2
228	310.826	4711.54	2
230	311.196	5299.03	2
231	311.179	6645.81	4
234	312.715	5926.12	26
239	311.834	3859.91	2
240	312.192	3289.6	2
242	313.156	4422.58	6
245	311.672	5226.22	2
247	311.539	5936.67	5
248	313.294	3360.67	3
249	313.284	3904.67	3
251	312.828	4346.88	2
259	314.186	3553.48	2
260	313.715	3636.98	2
264	313.977	5409.08	4
266	314.183	4874.17	2
278	314.711	2932.13	3
279	315.203	2908.86	2
281	314.71	3192.74	2
283	314.694	4100.46	2
287	314.843	4657.34	6
290	315.527	6609.05	6
291	315.203	5908.93	2
296	316.299	2155.55	2
298	315.718	2476.93	2
300	316.283	2736.13	2
307	315.957	3854.53	3
309	316.198	4174.08	3
310	316.567	3928.71	2
311	315.758	5357.59	3
313	315.78	6031.89	2
314	316.629	6212.9	2
315	316.174	6406.88	2
319	316.692	2567.21	3
320	317.479	2724.06	2
324	317.179	3546.57	4
335	317.202	4686.73	3
342	317.069	5202.37	3
343	316.524	5453.49	2
344	316.862	5530.62	2
346	317.569	5753.91	2
350	317.22	8503.74	5
357	317.687	2622.75	2
360	317.811	2901.14	2
365	318.956	4598.55	12
371	318.006	4152.56	2
372	318.73	4092.53	3
375	318.21	4425.49	2
382	317.992	5392.23	2
389	319.192	2521.79	3
394	319.253	4053.38	8
398	319.498	4030.53	2
399	318.972	5795.03	3
403	318.831	6836.56	3
405	319.163	7913.62	2
406	318.947	9836.42	4
414	319.55	3179.13	2
420	320.32	5198.36	2
421	320.195	5311.38	3
431	321.296	3107.84	2
436	320.723	4289.84	2
437	321.828	4526.31	3
440	320.519	4678.76	6
442	321.18	5066.7	2
443	320.664	5107.12	2
447	321.653	6639.14	2
448	321.184	7629.1	2
451	322.283	3762.53	9
452	322.459	2632.27	7
455	322.277	2611.63	2
458	322.778	3151.74	2
466	321.769	3725.27	2
467	321.508	4172.55	2
468	322.47	5894.22	4
469	322.182	4341.97	2
486	323.837	3958.48	2
492	323.107	4222.81	2
494	323.994	4728.57	3
501	323.015	6111.23	2
502	322.83	8025.55	2
505	324.678	1920.59	2
509	323.699	2754.65	2
510	324.431	3046.02	2
513	324.508	3383.83	3
514	324.181	3500.53	2
516	324.152	4342.75	3
521	324.296	4475.28	3
522	324.17	4624.56	4
526	324.438	5627.22	2
527	324.433	5958.13	2
528	323.534	6204.65	3
535	325.491	2459.43	2
542	324.915	4431.44	2
543	325.205	3556.38	2
544	325.047	3676.34	2
545	325.187	3994.8	2
552	325.124	5508.23	3
553	325.438	5673.13	2
555	325.195	5782.55	2
559	326.679	2622.83	2
560	326.437	2828.58	3
562	326.195	3185.05	2
568	325.853	3454.23	2
573	325.634	3980.14	2
575	326.194	4175.9	2
583	325.509	5075.14	2
587	326.693	5537.54	2
590	326.182	5839.97	2
593	326.68	5513.66	3
599	326.711	3094.81	2
601	327.448	3323.38	2
604	326.955	5761.35	2
606	327.196	4900.86	2
611	327.171	6626.45	2
613	326.536	8504.4	2
615	328.067	2904.13	2
617	327.695	1930.43	5
623	327.724	2625.79	2
631	328.804	3745.64	2
632	327.754	5021.31	5
634	327.624	4053.75	2
635	327.922	4153.52	2
640	328.853	4889.38	2
645	327.543	5413.78	2
646	328.596	5911.03	4
648	328.148	6976.28	2
649	328.108	7053.52	3
657	329.278	4069.14	2
661	329.218	2786.26	2
666	328.721	3451.35	2
677	328.547	5143.17	2
679	329.204	5690.32	2
686	331.035	9161	13
688	329.655	2986.78	3
706	330.34	4569.36	2
707	329.716	5039.64	2
710	329.535	5324.66	2
713	330.74	6020.13	6
715	329.875	6428.27	2
720	331.582	3058.79	6
721	331.136	2073.22	2
724	330.718	2682.52	2
727	330.693	3877.95	2
733	331.205	4563.58	5
734	330.695	4097.19	3
735	330.613	4233.21	2
737	330.718	4386.26	2
740	330.924	4899.96	2
743	331.278	5665.54	2
744	331.223	7872.98	3
745	331.337	7923.14	2
749	332.176	2270.56	2
751	332.194	2691.55	2
752	332.426	2807.8	2
753	332.168	2861.09	2
755	331.857	3281.68	2
756	331.857	3447.87	2
765	331.671	4675.63	2
772	332.15	5571.37	2
773	331.843	6335.17	2
774	332.023	8600.95	5
777	332.353	7305.15	2
778	332.189	7734.09	2
779	332.493	9160.61	2
783	332.613	3091.32	2
789	333.209	3285.46	2
792	332.848	3409.49	2
793	333.682	3512.91	2
797	333.203	3623.74	2
799	332.678	3853.29	2
807	332.705	5248.75	2
824	334.033	2141.92	2
828	333.718	3117.78	5
835	334.204	4741.78	4
836	334.18	5077.82	2
838	333.546	5404.29	2
843	334.205	7375.26	2
844	333.887	7760	2
845	335.107	6716.94	5
850	335.473	2495.96	2
852	335.304	2640.26	2
858	335.172	3811.37	2
862	334.93	4877.6	2
868	335.17	5817.45	2
871	335.716	2742.71	2
881	336.614	5447.5	3
882	335.874	3951.69	2
883	336.226	4063.06	3
884	336.174	4201.49	2
886	336.458	4309.99	2
889	335.958	5197.59	2
890	336.192	5275.82	2
893	336.024	5460.71	2
894	336.194	5832.44	2
895	336.226	5914.44	2
901	337.52	1954.47	2
905	336.715	2962.86	2
909	336.718	3712.39	2
914	337.194	4582.17	4
916	337.141	4734.23	3
917	337.313	4826.23	2
919	337.203	5030.61	2
924	337.035	5592.55	3
925	337.205	5686.75	2
926	336.718	6069.18	2
933	336.723	8154.73	2
934	336.726	8284.96	2
935	337.811	8603.41	4
941	337.793	2661.49	2
942	338.182	2721.08	2
945	338.701	3032.96	4
946	338.021	3120.19	2
947	338.34	3182.5	4
948	337.86	3317.48	3
949	337.861	3474.63	3
950	337.861	3583.68	2
951	337.697	4123.47	2
953	337.97	4275.5	2
957	337.618	4630.87	2
958	338.659	4667	2
960	337.829	5035.59	2
966	337.837	6589.68	2
973	339.203	2516.18	2
978	339.185	3537.63	2
979	338.707	3628.99	2
986	339.206	4537.95	2
988	339.033	4952.23	2
989	339.297	5508.99	3
994	339.524	6077.26	2
997	339.578	6682.58	2
1001	338.862	8204.49	2
1002	339.177	8787.86	2
1006	340.354	2511.88	2
1010	340.158	4838.72	3
1027	339.866	6141.03	2
1030	340.209	8444.96	2
1031	340.202	7761.49	3
1040	341.075	2507.59	3
1041	341.152	2857.6	3
1054	340.683	4426.16	3
1059	340.949	5406.25	2
1061	341.325	5855.91	2
1064	340.534	7910.47	2
1065	340.658	9885.96	3
1085	342.415	5190.37	2
1090	342.974	7334.43	5
1095	342.057	7369.98	2
1096	341.815	8981.81	2
1103	343.221	3293.58	2
1104	343.192	2325.52	3
1109	343.661	2878.72	2
1110	343.19	3338.46	3
1113	343.233	3490.21	3
1121	342.811	4268.01	3
1123	343.509	4657.35	2
1124	342.939	4708.96	2
1126	343.457	4942.93	2
1128	342.955	5115.74	2
1130	343.333	5397.34	2
1131	343.196	5416.34	2
1138	343.234	5813.04	4
1151	344.206	2842.1	3
1154	344.194	4088.03	3
1156	344.123	3421.99	2
1161	343.726	4033.66	2
1162	343.706	4176.25	2
1163	343.705	4339.99	2
1166	344.182	4750.44	2
1167	344.221	4891.15	2
1168	343.732	5324.43	2
1171	343.628	5611.27	2
1172	344.224	5827.24	2
1174	343.717	6384.66	3
1177	344.368	6968.52	2
1188	345.17	2637.15	2
1189	345.004	3421.73	6
1196	345.363	3696.94	3
1199	346.245	4575.94	4
1201	344.534	4965.61	2
1210	346.35	2283.22	3
1222	346.569	3970.12	2
1223	345.696	4094.39	2
1226	346.466	4443.65	2
1228	346.528	4678.12	5
1229	346.461	4834.95	2
1231	346.109	5160.19	9
1233	346.211	5189.85	2
1234	346.193	5318.57	2
1240	346.421	7405.63	3
1242	346.342	8666.29	2
1243	347.175	1688.86	2
1246	346.865	4435.26	3
1248	346.535	2517.37	2
1251	346.708	3327.29	2
1253	347.191	3755.99	2
1257	346.708	4216.99	3
1262	347.04	4529.07	2
1269	346.987	5698.02	3
1273	346.554	6164.04	2
1277	346.71	9234.47	2
1278	346.91	9786.29	2
1280	346.509	10230.2	2
1283	348.52	1883.33	2
1286	347.878	1989.17	2
1287	347.853	2076.26	4
1292	347.705	3309.37	3
1294	348.049	3224.96	2
1297	348.701	3570.54	2
1304	347.545	4773.4	3
1306	348.163	5242.21	2
1311	347.528	8346.76	2
1316	349.351	2027.38	2
1324	349.187	3065.62	2
1328	348.688	3664.46	2
1333	349.194	4010.08	2
1334	349.46	4065.51	2
1335	348.833	6341.99	2
1340	349.456	5411.65	2
1344	348.997	6248.98	2
1349	349.035	7858.87	2
1356	350.095	6454.33	7
1358	350.229	2722.78	2
1362	349.542	2967.09	2
1366	350.795	3220.38	4
1376	349.766	4687.3	4
1377	349.778	4839.99	2
1388	350.414	7400.91	3
1389	349.762	7547.27	2
1391	349.703	8639.61	2
1401	350.718	2983.96	3
1404	350.87	3278.34	2
1407	350.988	4150.14	4
1409	350.734	4255.16	2
1411	350.953	4318.3	2
1414	351.195	4787.87	2
1415	350.869	4882.61	2
1417	351.194	5088.41	4
1418	351.68	5155.53	2
1420	350.734	5532.43	2
1422	351.459	5097.55	2
1423	351.231	5807.15	2
1424	351.17	5980.46	2
1426	351.729	6914.51	2
1435	352.19	2294.52	2
1440	351.866	3022.17	2
1441	351.543	3115.42	3
1444	352.14	3415.16	3
1446	351.886	3624.69	3
1452	351.819	4347.22	2
1454	351.889	4594.86	2
1457	351.846	4719.82	2
1458	351.723	5468.09	2
1459	352.193	5695.33	2
1464	351.878	7753.15	2
1472	353.132	3943.48	3
1473	353.294	2153.92	2
1480	353.456	3096.19	2
1484	352.927	3828.65	2
1492	352.945	5176.19	2
1495	353.412	5580.91	2
1498	352.557	6179.02	3
1504	352.527	8482.08	2
1505	352.518	8674.03	2
1507	354.674	5035.78	34
1512	353.845	2273.35	2
1513	354.707	4780.03	2
1515	353.694	2644.87	2
1519	353.712	2909.59	2
1520	354.198	3312.05	2
1528	353.716	4100.61	2
1530	353.653	4519.47	3
1533	353.55	4976.82	2
1534	353.71	5569.88	3
1541	353.688	6963.9	2
1542	353.734	7440.51	2
1548	355.409	3911.48	16
1551	354.689	3125.57	2
1555	355.455	4312.35	2
1556	354.691	5038.27	2
1557	355.183	5463.18	3
1558	354.861	5528.4	2
1561	354.709	7763.6	3
1564	356.507	2701.44	4
1565	356.565	5723.48	2
1569	356.5	3253.08	2
1571	356.684	4189.4	2
1573	355.703	3746.41	2
1575	356.649	4129.83	3
1581	356.68	4893.55	2
1582	356.449	4998.22	2
1583	356.84	5207.06	2
1585	356.58	6580.12	4
1587	356.323	6661.83	2
1595	357.225	2673.8	2
1597	357.202	2912.66	2
1599	356.711	3171.98	2
1605	356.511	3857.76	2
1606	357.73	3958.45	2
1617	357.21	5170.38	2
1618	356.538	5322.92	2
1619	357.221	5407.26	2
1621	356.739	5653.7	2
1623	356.82	6184.1	2
1624	356.734	6438.46	4
1633	356.974	9188.51	2
1634	356.701	9476.1	2
1636	358.197	3082.42	2
1645	358.226	3250.27	2
1650	358.212	4039.07	2
1656	357.689	4596.23	2
1667	358.069	5983.93	3
1668	357.733	6513.82	3
1674	357.666	8588.82	2
1682	358.719	3739.71	2
1684	359.235	4190.4	2
1694	359.464	5380.39	2
1695	358.55	5552.19	2
1697	359.437	5811.03	2
1700	359.433	6168.12	2
1704	358.987	6932.05	2
1705	358.982	8341.63	3
1708	358.739	8303.28	2
1710	359.587	9596.33	3
1714	359.849	2285.64	3
1718	359.92	2933.2	2
1721	360.163	3138.57	2
1736	359.716	5448.04	2
1741	359.734	8037.31	2
1744	360.581	6411.64	2
1747	361.196	1764.02	2
1748	361.18	1887.27	2
1755	361.13	5220.38	8
1758	360.671	2825.63	2
1760	361.195	3336.44	2
1769	361.329	4776.82	2
1772	360.515	5649.89	3
1774	361.537	5860.7	2
1775	361.198	5934.14	2
1782	360.534	7271.97	3
1784	360.839	7582.39	2
1787	361.191	10216.1	2
1788	361.23	10394.4	3
1794	361.77	2626.66	2
1800	362.378	3346.05	2
1804	362.237	5400.15	2
1806	361.88	3783.93	2
1809	361.662	4111.8	3
1810	361.713	4151.63	2
1812	361.561	4350.41	2
1816	361.873	5087.87	2
1818	361.713	5306.3	2
1824	362.415	5821.32	2
1827	362.496	6957.37	4
1828	361.844	7061.68	2
1830	362.119	7848.16	3
1831	362.222	9377.51	5
1850	363.352	7719.77	3
1851	363.234	4259.22	2
1853	363.561	4733.46	2
1854	363.478	4809.26	4
1855	364.049	3828.71	4
1858	362.687	5261.87	2
1859	363.237	5359.75	2
1863	363.213	6148.93	2
1864	362.897	6733.98	2
1870	362.708	9206.8	2
1871	362.946	10240	2
1874	363.704	1984.89	2
1877	363.597	4480.61	2
1878	364.029	2248.98	2
1880	363.527	2595.2	2
1883	364.178	3030.52	2
1886	363.877	3660.3	2
1888	363.847	4220.21	2
1890	363.7	4667.86	2
1891	363.972	5066.09	3
1893	364.4	5193.48	2
1896	363.993	5642.15	3
1903	364.212	6442.44	2
1906	363.885	7268.37	3
1907	364.257	7744.67	4
1908	363.729	7782.19	2
1914	365.447	1701.16	2
1923	364.714	2965.61	3
1924	365.235	3449.14	2
1927	364.702	3269.65	2
1928	364.843	3527.77	3
1932	365.222	4062.49	3
1934	365.304	4474.05	7
1945	365.247	5491.34	2
1946	365.302	6679.43	2
1948	365.229	6076.79	2
1954	365.215	8530.25	2
1956	364.962	8658.79	2
1964	365.554	2482.74	2
1968	366.207	3164.62	2
1971	366.391	3568.95	2
1972	366.307	3633.88	4
1980	366.215	4577.69	3
1982	365.727	5353.15	2
1983	366.188	4814.43	2
1986	365.97	5011.77	2
1988	366.727	5117	3
1990	366.554	5908.13	3
1992	366.031	6567.47	2
1993	366.485	6736.31	2
1994	366.34	6793.69	3
1995	365.897	8073.02	2
1996	365.525	8206.84	2
1999	366.357	10257.5	2
2015	366.503	3728.34	2
2016	366.868	3842.18	2
2020	367.213	4126.53	2
2024	367.322	4762.81	2
2031	367.12	5865.27	3
2034	367.473	6122.18	3
2037	366.538	7287.74	4
2054	367.878	3205.96	3
2056	368.451	3423.24	3
2062	368.217	3947.92	2
2066	367.955	4271.05	2
2078	368.169	6096.97	2
2084	367.713	7795.45	2
2090	368.669	1754.13	2
2109	368.871	4996.33	2
2115	368.946	5584.16	2
2117	369.224	6053.18	2
2120	368.721	6565.1	2
2122	368.715	6856.34	2
2125	368.661	7848.7	2
2129	370.181	3979.3	2
2130	370.282	4064.34	6
2139	369.87	5216.97	2
2145	371.458	4839.57	15
2148	370.728	3556.38	2
2149	371.247	3655.88	2
2152	370.815	5233.95	2
2153	370.658	5030.56	3
2157	372.913	3326.87	7
2158	372.458	2710.43	2
2168	371.711	4710.27	2
2169	372.731	5018.6	2
2170	371.745	5526.97	2
2173	371.745	5855.58	2
2175	371.901	8069.08	2
2177	372.697	7515.49	2
2181	373.529	2187.09	2
2187	373.477	4860.35	10
2190	373.451	3460.29	2
2192	372.765	3872	3
2195	373.419	4941.74	5
2198	372.886	5212.19	2
2199	373.091	5508.6	2
2204	372.905	6523.42	2
2205	372.734	6504.59	2
2210	372.541	8313.72	2
2223	374.2	2781.48	2
2225	373.693	2962.92	2
2228	374.749	4401.52	5
2229	374.03	3238.33	2
2234	374.692	4083.25	2
2236	373.991	5646.64	3
2249	374.211	6406.99	2
2252	374.217	7939.72	3
2254	373.727	7135.72	2
2257	374.242	7952.66	2
2258	374.241	8108.78	2
2259	374.185	8190.71	2
2260	373.843	9876.67	2
2266	374.702	2023.1	2
2276	375.549	4950.81	5
2277	374.845	4090.98	3
2278	375.303	4506.37	4
2283	374.993	4671.62	3
2287	375.213	5334.52	3
2288	375.035	5392.33	2
2289	374.952	5424.94	2
2294	375.219	6251.45	3
2295	374.721	6563.49	2
2296	375.474	6621.65	2
2300	374.502	7260.83	2
2303	375.219	7739.09	2
2306	375.543	6228.65	3
2309	374.74	9447.15	2
2316	376.224	2457.47	2
2318	376.124	2776.65	2
2324	376.279	3539.31	3
2326	376.193	3555.66	2
2332	375.964	4552.34	4
2333	375.698	4643.62	2
2335	375.548	5121.01	2
2340	376.08	5815.1	2
2343	377.062	6295.56	3
2345	375.959	7525.05	2
2362	377.103	3371.89	3
2366	376.97	4859.08	3
2368	377.23	4126.81	2
2371	377.028	4318.82	2
2373	376.97	5248.85	3
2376	376.849	5342.85	4
2379	377.022	5626.18	3
2380	377.12	5849.3	3
2381	377.446	6044.62	2
2382	377.382	6107	2
2384	376.858	7010.59	2
2387	376.65	7851.59	3
2389	376.876	8462.4	3
2395	377.822	2269.33	2
2400	378.699	2878.86	2
2401	378.208	2965.23	2
2403	377.951	3145.69	2
2405	378.435	3567.08	2
2407	377.722	3912.73	2
2411	379.271	4553.8	6
2415	378.266	4604.87	3
2416	378.586	4666.08	3
2417	378.199	4716.95	2
2419	378.672	4822.48	2
2423	378.242	6467.94	2
2425	378.732	7025.57	11
2438	379.002	4234.85	3
2440	378.725	2215.13	2
2446	378.986	3122.35	2
2450	379.326	3727.66	6
2455	378.977	4481.16	2
2459	380.067	6678.42	5
2466	379.201	5764.19	4
2469	379.056	6189.2	2
2471	379.19	6577.8	4
2476	379.461	7805.62	2
2479	379.252	8364.47	2
2481	379.167	9854.05	3
2482	378.708	10661.8	3
2489	379.996	2623.3	2
2502	379.886	4164.59	2
2507	379.874	5250.3	2
2508	379.742	5311.46	2
2514	379.983	6106.54	2
2515	380.09	6312.14	4
2517	380.462	6810.32	2
2519	380.223	7081.88	2
2521	380.213	7687.19	2
2523	379.75	9055.82	3
2524	379.855	9445.22	2
2526	380.225	11342.7	2
2527	380.213	11453.8	2
2528	380.953	1712.75	2
2536	380.868	2323.2	4
2537	381.02	2464.63	2
2539	381.046	2647.99	2
2541	380.719	2763.61	2
2545	380.962	3520.43	2
2548	380.723	3361.22	2
2558	380.777	4788.09	2
2566	381.523	5619.01	2
2576	380.538	8645.42	2
2584	382.451	3099.87	2
2585	381.561	3218.27	2
2586	382.009	3984.54	3
2588	381.658	3826.18	2
2589	381.723	4034.53	2
2596	381.94	4557.01	4
2597	382.34	4665.87	3
2598	381.93	4807.27	2
2603	382.21	5256.24	2
2612	382.199	7657.8	2
2618	381.554	10829.3	4
2621	382.535	1899.44	2
2634	382.718	4160.87	2
2638	383.359	4716.1	2
2639	383.64	4315.26	3
2641	382.868	4965.38	2
2642	383.135	5062.86	4
2643	383.102	8067.91	3
2648	383.465	5809.77	2
2652	383.201	6387.79	2
2665	382.867	8108.87	2
2668	382.995	10060.9	3
2677	384.58	2982.57	2
2681	383.959	3286.15	2
2683	383.701	3452.6	2
2694	384.651	5158.4	2
2695	383.884	5595.15	2
2703	383.846	7203.54	2
2705	384.694	5237.61	4
2706	383.552	7650.28	2
2707	383.699	8373.82	2
2708	384.725	9563.01	6
2710	384.37	9313.79	3
2716	384.952	1976.3	2
2721	385.447	4643.48	4
2733	385.221	3565.26	2
2735	385.394	4912.41	4
2737	384.794	3912.09	2
2744	384.854	5229.1	2
2746	385.269	5160.73	4
2750	385.213	6475.33	2
2751	385.192	7028.82	2
2754	384.636	7861.58	2
2770	386.371	2478.64	2
2780	385.748	3843.73	2
2781	386.052	3802.59	3
2785	385.962	4208.74	2
2787	386.967	5083.49	3
2788	386.209	4409.23	3
2789	386.24	4523.33	2
2791	385.939	4839.45	2
2797	385.814	5580.61	2
2800	386.121	5629.91	2
2801	386.049	5843.68	2
2803	385.764	6549.99	6
2808	385.864	7149.79	2
2814	386.191	8600.73	2
2820	385.545	10195.5	2
2831	387.796	3101.58	4
2832	387.228	3801.11	2
2833	386.729	3036.11	2
2835	386.777	4185.21	3
2837	386.96	3649.06	3
2840	386.712	3773.26	2
2841	386.774	4077.55	2
2845	387.222	4779.02	2
2847	387.233	4900.63	2
2854	386.75	5692.43	2
2858	386.75	6093.49	2
2859	387.212	6140.41	2
2864	387.25	7820.39	2
2869	387.706	10406.7	2
2870	386.554	11595.7	2
2872	387.707	1693.5	2
2874	388.079	1974.26	2
2877	388.199	2431.17	2
2878	388.304	4440.77	7
2881	388.448	2938.3	2
2883	388.246	3803.59	2
2886	387.707	3550.22	2
2890	388.269	3779.8	3
2893	387.95	4156.75	2
2896	388.224	4560.13	2
2898	388.398	5150.52	2
2900	388.223	5247.03	2
2905	387.731	5751.39	2
2908	388.624	6393.65	9
2909	387.892	6768.97	2
2912	388.217	7577.52	2
2913	388.245	7697.77	2
2919	389.257	1817.14	2
2924	389.396	2824.46	2
2925	389.625	2865.89	3
2929	389.286	3314.57	3
2933	389.392	3722.78	2
2935	389.486	3699.59	2
2936	388.916	4654.49	4
2939	389.593	4263.33	2
2940	389.387	4397.16	2
2943	389.231	5981.38	2
2947	389.319	5338.94	3
2950	388.607	5573.45	2
2956	389.229	6894.67	4
2959	389.229	7425.49	2
2964	388.552	7919.67	4
2967	389.248	8627.53	2
2969	388.502	10035.5	3
2979	390.712	2339.84	2
2987	390.039	3521.64	2
2988	390.224	3587.63	2
2989	390.219	3815.53	2
2991	389.969	4294.73	2
2992	390.295	4682.98	2
2995	389.628	4942.37	2
2996	389.853	4982.5	2
2998	389.543	5300.37	2
3002	390.206	6055.16	2
3003	390.35	6408.48	2
3005	390.183	7516.67	2
3010	389.735	9328.23	2
3012	389.676	9664.78	3
3013	389.684	11452.3	2
3021	391.547	3371.66	5
3022	391.375	3187.76	2
3023	390.885	3380	2
3024	391.201	6721.17	2
3026	391.682	3925.22	2
3027	390.888	4342.34	2
3028	391.037	4487.06	3
3039	391.677	6920.84	4
3040	391.281	7083.59	2
3041	391.454	7289.5	2
3042	391.082	8063.25	7
3043	391.325	7908.17	3
3044	391.593	9129.8	2
3048	391.73	4637.2	4
3049	392.149	2205.33	2
3055	391.986	3940.59	2
3059	391.764	4684.14	2
3060	392.253	4795.29	2
3061	392.574	5212.03	7
3062	392.475	5282.76	2
3066	392.258	5693.4	2
3069	391.761	5992.26	2
3073	391.807	7384.24	2
3074	392.214	8633.46	2
3076	392.013	9638.02	2
3082	393.379	4483.52	7
3083	392.809	2715.36	4
3084	392.946	2950.56	2
3094	393.211	4085.27	2
3097	393.553	4628.4	2
3098	392.545	4856.62	4
3100	392.733	5496.89	2
3101	393.248	5584.44	2
3104	393.639	6072.28	3
3105	393.533	6243.83	4
3106	392.966	6537.78	2
3109	393.509	6432.47	2
3110	393.26	7155.47	3
3112	392.697	7472.25	3
3115	393.348	7748.43	3
3116	393.247	7950.65	2
3118	392.748	8561.95	2
3121	392.711	10352.3	3
3127	394.237	3771.35	3
3130	394.581	3099.29	2
3131	393.746	3306	2
3133	393.866	3388.75	2
3136	393.692	3590.27	2
3146	393.88	5040.73	3
3149	394.287	5420.52	3
3153	394.826	5978.11	2
3154	393.758	6655.1	2
3156	393.981	6830.6	2
3160	394.456	7282.3	2
3162	394.257	7873.41	3
3163	394.259	8052.64	3
3164	394.734	8664.74	2
3165	394.445	8879.65	2
3168	393.705	11079.4	2
3174	394.96	2123.5	2
3179	395.19	2489.22	2
3182	395.238	2655.36	2
3185	394.711	2839.85	2
3186	395.093	3696.55	4
3190	395.229	3054.24	3
3191	394.894	3427.31	3
3199	395.903	4192.83	2
3201	394.944	6214.51	2
3202	394.743	4390.57	5
3209	395.212	5961.6	2
3211	394.996	5631.68	2
3215	394.908	6357.27	2
3216	395.203	6424.98	2
3219	395.719	7873.11	2
3223	395.335	7552.33	2
3224	395.33	7934.46	2
3225	394.737	7766.86	2
3226	395.227	8334.76	2
3233	396.541	3335.6	3
3236	396.009	3498.55	2
3239	396.261	3952.72	2
3245	395.979	4955.61	2
3247	396.219	5119.66	3
3249	396.236	5545.85	2
3250	396.039	5578.56	2
3258	395.999	8153.7	2
3261	396.133	8700.65	3
3266	396.255	9470.39	2
3267	395.745	9655.18	2
3272	397.32	1614.11	2
3283	397.014	2623.03	2
3287	397.326	3519.52	2
3289	396.963	3772.45	2
3291	397.224	5598.79	2
3296	397.197	4304.24	2
3297	397.094	4656.54	2
3305	397.191	5621.66	2
3308	396.972	6124.47	2
3310	397.029	6225.77	3
3312	397.226	6359.51	2
3314	396.707	7934.38	2
3315	397.777	11060.6	6
3316	396.885	11701.6	13
3320	398.34	2045.88	3
3322	397.703	2680.69	2
3328	398.216	3722.56	2
3334	398.375	5050.49	2
3339	397.543	5536.76	2
3340	398.526	5588.31	3
3341	397.713	5997.92	2
3344	398.562	6648.63	2
3345	398.836	6819.82	9
3346	397.896	7159.03	2
3350	398.709	7896.76	2
3355	398.608	8397.3	2
3359	398.151	8785.25	2
3377	398.966	3665.27	2
3378	399.533	4546.79	3
3379	398.705	4137.74	3
3382	398.885	4404.58	2
3386	398.885	7040.42	2
3387	399.01	5233.04	3
3388	398.866	5316.03	2
3390	399.134	5710.2	2
3391	398.761	6008.18	2
3392	399.737	5860.48	2
3398	398.989	6880.07	2
3402	398.627	7639.77	6
3403	399.221	7965.79	2
3404	399.26	8091.48	2
3405	399.436	8268.85	2
3407	398.54	8865.68	3
3408	398.833	9088.31	3
3409	399.315	9257.6	2
3423	400.243	2879.17	2
3428	400.212	3539.83	2
3435	400.926	4707.3	3
3436	400.424	5175.21	3
3438	400.312	5418.67	2
3442	400.487	5900.77	2
3446	399.741	6438.84	2
3448	400.054	7059.49	2
3450	400.511	7230.57	2
3455	399.573	11471.6	2
3457	401.426	1912.56	2
3458	400.541	2257.04	2
3462	400.978	5396.36	9
3466	400.772	4694.65	10
3469	401.378	5468.54	2
3470	400.647	7682.17	2
3473	400.753	5651.72	2
3474	401.845	6464.25	3
3480	401.264	7372.27	2
3482	401.375	7660.76	2
3486	401.245	8981.22	2
3488	400.662	10586.4	3
3489	401.265	11099.9	3
3491	402.19	1702.53	2
3502	402.475	4406.54	6
3503	402.345	4128.7	3
3508	402.051	4035.06	2
3514	402.215	4987.73	3
3516	401.745	5268.5	2
3517	402.547	5412.87	2
3518	402.232	5597.18	2
3520	401.88	6121.13	2
3521	401.713	6181.43	2
3529	402.227	7177.58	2
3534	402.237	8405.56	13
3536	401.87	8585.46	2
3541	403.72	3150.83	2
3551	403.029	3751.38	2
3554	402.965	6108.83	2
3559	403.198	3940.54	2
3565	403.705	5488.92	2
3569	403.565	5750.99	2
3571	402.892	6049.65	2
3572	403.745	6130.89	2
3574	402.89	6620.05	2
3587	404.239	3289.16	3
3596	403.919	4077.51	2
3598	403.862	5063.92	2
3603	403.742	5980.79	2
3605	403.955	6894.24	4
3607	404.228	7514.25	2
3609	404.237	8024.89	2
3610	404.58	8128.17	4
3619	403.697	10752	2
3621	403.531	11406.6	2
3639	405.229	2911.96	2
3640	405.541	3700.58	2
3642	405.382	3005.93	2
3644	405.226	3774.24	2
3650	405.384	4423.14	2
3651	405.28	4851.27	15
3653	405.23	5316.33	3
3656	405.549	5866.29	7
3659	404.71	6206.37	2
3660	405.233	6207.48	2
3662	405.066	6533.62	2
3663	405.25	6586.45	2
3664	404.946	6703.45	2
3671	404.523	7880.54	2
3673	405.215	8335.13	2
3676	404.924	9637.06	3
3679	404.739	10584.2	3
3684	405.77	2042.63	3
3692	406.067	2969.25	2
3694	406.051	3085.13	2
3698	405.891	3597.26	2
3701	406.563	3854.11	4
3704	405.735	5222.07	2
3705	405.56	5386.82	2
3712	406.127	6765.39	3
3714	405.908	7266.02	5
3715	405.713	7442.37	2
3718	406.216	7707.5	2
3719	406.393	7931.17	3
3720	405.93	8187.18	2
3721	406.274	8659.55	2
3722	406.248	9427.12	3
3723	406.205	9526.7	2
3738	406.98	4092.81	3
3740	406.729	4469.96	2
3741	407.243	7319.65	6
3743	406.998	4952.24	2
3750	406.548	6298.9	2
3751	406.698	6411.24	2
3756	407.394	5040.04	3
3757	406.9	7163.68	2
3762	406.887	8794.49	2
3763	407.276	9917.66	2
3765	406.855	10017.4	2
3767	407.466	10804.3	2
3770	407.632	1616.31	2
3772	408.316	4213.25	2
3775	407.623	2148.02	2
3781	408.215	3228.24	2
3785	408.252	3565.77	2
3787	407.56	3658.55	2
3793	407.755	4687.61	2
3808	408.219	6220.13	2
3813	407.762	6845.47	3
3814	408.175	6906.51	2
3827	407.691	10727.5	2
3849	408.887	4206.97	2
3851	408.88	4325.35	3
3856	409.25	6591.15	2
3859	409.218	7418.33	2
3860	409.01	7630.82	3
3861	409.5	7726.9	2
3862	409.08	9012.41	2
3863	408.934	8143.32	2
3866	408.901	8915.68	2
3867	409.563	9527.59	3
3868	408.506	10044.4	2
3882	410.184	3236.99	3
3886	410.212	3282.3	2
3890	410.034	3939.58	2
3894	410.894	5019.14	28
3895	410.326	5560.64	5
3900	410.239	5938.95	3
3902	410.565	6250.35	4
3906	410.583	6956.17	4
3907	410.546	7067.46	3
3909	410.085	7277.59	2
3910	410.234	7496.13	3
3915	410.24	8069.08	2
3916	409.724	8251.2	2
3917	410.401	8311.6	2
3919	410.21	8438.69	3
3923	409.527	9452.53	3
3925	410.054	10073.5	4
3929	411.725	1839.77	2
3931	411.625	3672.13	4
3938	410.642	2698.95	2
3939	411.492	2877.34	2
3940	411.246	3020.45	2
3945	410.548	3627.92	2
3949	411.466	3841.54	2
3953	410.983	6005.52	2
3957	411.329	7015.9	2
3958	411.534	7251.13	2
3961	411.341	7850.59	4
3962	410.829	7808.2	2
3967	411.597	9224.85	2
3969	411.385	9502.62	2
3983	412.466	2666.43	2
3985	411.743	3531.71	2
3989	412.308	3897.02	2
3996	411.541	4284.65	2
4012	412.391	6788.53	2
4015	412.753	7441.23	2
4016	412.24	7619.43	3
4017	411.831	7984.67	2
4032	413.459	2738.8	2
4039	413.25	3577.21	2
4046	413.228	4445.18	2
4050	413.455	4916.81	2
4052	413.742	5189.38	2
4057	412.766	5814.17	2
4063	412.924	6608.45	3
4071	413.405	8214.06	8
4075	412.722	9324.13	3
4076	413.204	9553.28	2
4080	414.237	2092.08	2
4084	414.23	2889.76	3
4087	413.948	3676.3	2
4094	413.568	5337.27	3
4102	413.726	6262.77	2
4104	414.9	6550.93	3
4108	414.463	7629.47	3
4109	414.226	7897.61	2
4113	414.213	8889.97	7
4116	413.921	10085.5	5
4121	414.777	1687.3	2
4128	415.455	2794.58	2
4130	414.702	3212.27	2
4134	415.866	3667.11	4
4136	415.835	4079.95	3
4140	415.511	4635.43	2
4141	414.517	4682.92	2
4143	415.206	4764.32	2
4147	414.754	5043.85	2
4153	414.764	5482.65	2
4155	415.261	5858.23	3
4159	415.159	6939.81	3
4160	415.381	6718.05	2
4162	414.99	6876.63	2
4165	415.246	7673.89	2
4166	414.884	7713.55	2
4169	415.422	8501.92	3
4170	414.723	8565.6	2
4172	415.248	8673.94	2
4178	415.268	10172.5	3
4188	416.375	2563.86	2
4193	416.227	3124.85	2
4200	416.57	3865.35	2
4201	415.78	4302.84	8
4204	415.85	4651.8	2
4206	415.903	4982.9	2
4209	416.246	5610.52	3
4213	415.773	6037.92	3
4215	416.24	6193.37	3
4217	415.817	6469.21	2
4223	415.806	7380.03	2
4225	415.9	7536.46	2
4232	416.259	8873.85	2
4234	416.655	9316.82	2
4235	415.553	10194.9	2
4245	417.467	2299.05	2
4246	417.103	4322.61	5
4248	417.247	7440.75	2
4251	417.001	3646.88	3
4254	417.323	4016.65	2
4258	417.376	6046.66	2
4261	416.986	6345.47	2
4262	417.044	6582.07	2
4265	417.302	6740.5	2
4267	417.997	7094.5	3
4269	416.768	7741.87	2
4272	416.583	8351.59	2
4277	417.001	10626.1	3
4281	418.302	1975.64	2
4284	418.038	2641.93	2
4289	418.487	2425.64	2
4297	418.233	4416.18	4
4299	418.066	4651.13	3
4302	418.059	4957.4	2
4304	418.888	5113.69	3
4305	418.067	5197.55	2
4307	418.195	5395.79	2
4313	417.588	6427.86	2
4318	418.388	7137.53	2
4319	418.379	7413.7	3
4320	418.104	7538.97	4
4321	417.896	8234	3
4323	418.255	7907.05	2
4324	417.921	8252.81	2
4327	418.245	9079.28	3
4331	418.278	10780.1	3
4337	418.987	2068.92	2
4340	419.2	5031.7	9
4342	419.206	3687.51	8
4345	419.553	3485	2
4347	419.003	3749.31	2
4352	419.55	4184.54	2
4354	419.204	4426.74	2
4358	419.22	5265.98	3
4362	419.432	7770.1	3
4366	419.067	8131.1	2
4368	418.559	8525.86	2
4371	419.07	8750.48	4
4372	419.465	9776.63	3
4386	420.374	2661.27	2
4388	420	2546.88	3
4392	419.76	3794.84	2
4397	420.488	4785.48	2
4402	419.913	5372.03	2
4403	420.396	5447.99	2
4404	420.256	5770.06	15
4406	420.271	6142.47	2
4412	419.563	7228.87	3
4413	420.224	7360.61	2
4415	419.71	8022.01	3
4420	420.58	9311.67	2
4421	419.715	9453.68	2
4422	419.587	10044.6	2
4424	419.603	10674.1	2
4425	419.742	11112.6	2
4430	421.555	1758	2
4432	420.649	2046.4	2
4434	421.309	2133.84	2
4436	421.215	2266.59	2
4438	421.149	2646.98	6
4445	421	7228.49	2
4446	420.927	3642.3	2
4447	421.063	3708.94	2
4450	420.946	3893.95	2
4454	420.558	4508.22	2
4455	420.58	4596.88	2
4460	420.557	5022.31	2
4462	420.973	5409.68	2
4464	421.584	6271.07	3
4467	421.24	6520.09	2
4469	420.66	7213.93	2
4471	421.4	6970.05	2
4474	421.197	7423.22	3
4476	420.98	7714.88	2
4478	420.884	8501.23	2
4484	420.745	10935	2
4485	420.682	11459.8	3
4492	421.704	2967.81	2
4493	421.759	3009.56	2
4496	422.32	4941.23	3
4502	422.584	4245.61	3
4503	421.541	4290.16	2
4505	423.127	3765.83	6
4508	421.753	4698.75	4
4509	422.438	5013.51	2
4512	421.976	5264.13	3
4514	422.251	6955.53	2
4519	422.274	6640.85	2
4522	422.24	7892.97	3
4524	422.263	8457.5	2
4526	421.556	8754.77	3
4528	422.46	9187.85	2
4530	421.733	9607.38	3
4545	423.213	4518.57	2
4546	423.464	3524.17	2
4549	423.238	3823.13	2
4552	422.99	3830.37	2
4555	423.725	4058.66	2
4557	423.417	4518.45	2
4558	424.072	4613.58	3
4563	422.752	5182.91	2
4567	423.36	5783.04	2
4571	423.237	6162.58	2
4575	423.001	6763.59	2
4576	422.761	6925.57	6
4578	423.387	7188.28	2
4579	423.617	7250.37	2
4580	423.733	7350.57	2
4582	423.129	7434.28	3
4583	423.23	7682.07	2
4585	423.059	7736.03	2
4587	422.584	8174.7	2
4588	423.602	8203.43	2
4589	422.75	8280.47	4
4592	423.266	9038.7	2
4595	423.458	9770.95	3
4598	422.831	10278.5	2
4601	424.707	1653.18	2
4607	424.377	2148.03	3
4610	424.223	2483.47	2
4616	424.548	2838.01	2
4620	423.834	3043.4	2
4622	424.153	3281.32	2
4634	424.409	4954.38	2
4635	424.1	5027.47	2
4637	424.465	5307.76	2
4638	424.236	5354.54	2
4639	424.084	7188.96	2
4643	424.371	6274.6	4
4645	424.493	6430.86	2
4646	423.745	6473.68	2
4647	423.576	7451.56	2
4648	423.587	7562.81	3
4650	424.37	7828.81	3
4652	424.321	5555.93	2
4653	424.357	8745.84	2
4660	424.741	1750.82	2
4671	425.39	5713.54	3
4676	425.554	3559.04	2
4682	425.414	4180.18	2
4688	425.245	5621.61	2
4693	424.742	7101.55	3
4694	424.873	7167.08	2
4701	424.86	8803.05	2
4705	425.111	9599.45	2
4708	426.267	5376.01	4
4716	426.342	2301.89	2
4719	426.191	2451.5	2
4726	426.063	3321.93	2
4738	425.767	4756.66	2
4743	426.465	6453.48	2
4747	425.854	6859.63	2
4750	425.737	7318.92	2
4752	426.247	7755.4	2
4766	427.715	2036.91	2
4773	427.217	2936.05	3
4778	427.622	4043.6	3
4781	426.853	4353.44	2
4784	426.763	6593.91	9
4785	427.23	7271.62	2
4786	426.977	8019.74	4
4791	427.244	9215.74	2
4792	427.006	9560.66	2
4793	426.92	10124.4	3
4794	427.303	11436.4	3
4796	428.548	1703.94	2
4803	428.695	5537.56	4
4808	428.495	3444.61	2
4809	428.247	3632.29	2
4815	428.479	4731.55	2
4816	427.91	5104.78	2
4817	427.726	5423.85	2
4820	428.269	6185.89	4
4823	428.231	7017.24	2
4827	427.954	8120.61	4
4828	427.547	8469.47	2
4830	428.224	9286.97	2
4833	428.646	7789.02	7
4834	428.511	10568.9	2
4839	428.725	2455.27	2
4841	429.103	6723.14	2
4844	429.404	3883.3	2
4845	429.631	3723.64	4
4848	429.148	5673.25	3
4849	429.282	4667.24	3
4851	428.907	5474.82	2
4855	429.258	6352.72	2
4856	429.195	6646.66	3
4858	428.581	6824.65	2
4860	428.594	7092.86	2
4862	428.926	7432.88	2
4865	429.381	8196.42	2
4866	428.906	8620.75	2
4868	429.021	8862.78	2
4870	429.242	10444.6	2
4885	429.733	3103.18	2
4895	430.155	5938.52	3
4896	429.567	4335.1	2
4898	430.213	4760.93	2
4900	430.786	4844.82	3
4901	429.743	4942.47	3
4902	429.984	5142.37	2
4909	430.012	6952.97	2
4911	429.713	6769.12	2
4913	430.232	7546.99	2
4914	430.488	7619.11	2
4917	429.903	7855.84	4
4923	429.671	8673.24	3
4930	430.269	9846.64	2
4931	430.241	11009.9	5
4940	430.75	2637.01	2
4942	430.734	2866.65	2
4944	431.205	3318.89	2
4949	431.321	4040.47	2
4958	431.409	5734.59	4
4963	431.258	6218.65	2
4964	431.439	6294.48	3
4965	430.678	6392.28	2
4968	430.726	6570.84	2
4971	430.729	6992.4	4
4976	430.693	9327.19	2
4980	431.556	10726.1	3
4981	430.784	10876.9	2
4982	430.955	11616.9	2
4983	431.983	1664.25	2
4984	431.548	1806.93	2
4991	432.239	3044.43	2
4994	432.239	3205.63	2
4996	432.065	4602.35	2
4997	431.567	3835.24	2
4999	431.739	4103.05	2
5002	432.585	4589.54	3
5006	432.734	5375.77	2
5014	432.256	7188.48	2
5017	432.492	6619.81	4
5025	432.907	8034.6	3
5029	432.503	8581.83	2
5031	432.247	8900.68	2
5036	431.572	9765.47	2
5040	431.742	10581	2
5041	431.951	10807.6	3
5044	431.905	11390	2
5049	432.551	2040.57	2
5050	432.558	2126.11	3
5061	432.74	3755.44	2
5067	433.216	5267.93	4
5073	433.057	6681.07	2
5076	433.077	6984.54	2
5087	432.959	8521.99	2
5089	433.259	9258.16	2
5090	433.241	9390.32	2
5093	432.929	9853.44	2
5094	433.881	9543.28	4
5095	432.732	10146	2
5097	433.469	10113.5	4
5099	433.443	10667.1	2
5102	434.065	3097.85	3
5124	434.483	4271.14	2
5126	433.726	4502	2
5134	433.861	5942.08	2
5140	434.365	7091.22	2
5141	433.719	7520.73	2
5145	434.236	7789.18	2
5150	434.555	9356.39	2
5153	433.715	11554.8	5
5158	434.906	2960.11	2
5161	434.711	3202.01	2
5165	436.111	7233.75	5
5167	436.132	4215.96	3
5168	435.27	3950.46	2
5170	435.258	4441.32	2
5171	434.591	4654.42	4
5172	434.74	4761.97	3
5173	435.001	4879.34	2
5176	435.235	8083.9	7
5178	434.732	5693.49	2
5179	434.865	5786.93	2
5180	435.736	6129.27	2
5184	435.561	6851.82	3
5187	434.649	7271.55	2
5188	434.758	7394.22	3
5193	434.779	8224.5	2
5194	434.782	8307.63	2
5195	435.734	6938.78	2
5196	435.632	8445.05	2
5203	435.377	9581.13	2
5204	434.833	9674.55	2
5214	436.23	2335.35	2
5218	436.262	3318.21	3
5222	436.223	3769.47	2
5226	436.572	4129.57	2
5229	435.75	4871.23	3
5231	436.612	4884.24	2
5233	435.774	5235.95	6
5243	435.744	6237.12	2
5244	435.787	6324.1	2
5248	436.051	6468.63	2
5252	435.744	6784.36	2
5253	435.774	7199.99	2
5258	435.774	7848.41	2
5264	435.893	9913.11	2
5290	436.887	4160.83	2
5295	437.421	4502.61	3
5296	437.223	4689.83	3
5302	437.622	5449.74	2
5304	437.311	6096.79	8
5306	437.063	6665.05	2
5310	436.959	7868.22	4
5311	436.987	6998.36	2
5312	436.758	7062.66	2
5318	437.729	7573.23	2
5321	436.764	7945.76	2
5325	436.716	8264.72	2
5326	437.236	8645.6	2
5328	436.763	8813.58	2
5329	436.771	9212.77	3
5330	437.024	9848.71	2
5340	437.97	1963.05	2
5341	437.735	2196.2	2
5344	438.238	2611.63	2
5348	437.743	3097.06	2
5354	437.72	4029.6	2
5355	438.478	4227.25	2
5356	437.764	6396.66	3
5357	437.994	4310.77	2
5360	437.711	4772.37	2
5364	438.208	5620.45	4
5366	437.985	5759.38	2
5372	438.04	6613.86	2
5373	438.038	6718.94	3
5377	437.755	7782.82	3
5379	438.239	8162.08	3
5382	437.727	8492.77	2
5386	438.239	9360.85	3
5390	439.253	2078.26	2
5407	439.007	3825.09	2
5410	438.748	5429.89	2
5414	438.979	4414.43	2
5416	439.598	4381.39	5
5417	438.751	4981.95	2
5421	438.994	5518.7	2
5423	438.986	5621.05	2
5425	438.742	5793.61	2
5429	438.75	6345.57	2
5435	439.248	6843.28	3
5437	438.569	7369.1	2
5444	439.511	8801.41	3
5445	439.182	8886.25	3
5447	438.782	9125.73	2
5455	439.705	2137.82	2
5456	440.395	2071.57	2
5459	440.465	2413.98	2
5464	439.736	2654.64	2
5467	440.169	3274.72	6
5468	439.761	3285.01	2
5472	439.891	3776.58	2
5478	439.542	4831.93	2
5482	440.24	5250.68	2
5483	440.224	5467.66	2
5494	440.236	7106.08	2
5498	440.259	8044.18	2
5500	440.458	8182.11	2
5501	440.336	8235.98	2
5502	440.232	8407.08	2
5508	439.758	9853.44	2
5509	439.74	10179.8	2
5518	440.707	2704.33	2
5525	440.598	4759.66	2
5527	441.556	4975.35	2
5530	440.907	6187.95	2
5531	441.234	6265.35	3
5532	440.829	6391.12	4
5533	440.913	6631.52	2
5536	440.883	6893.39	2
5544	441.264	7800.79	2
5547	441.128	7994.18	2
5557	441.079	11757.4	2
5564	441.887	2024.23	2
5568	442.153	5630.64	2
5573	441.723	3848.14	3
5574	442.225	4097.14	2
5576	442.404	4274.58	2
5584	441.884	5185.51	2
5601	442.23	7088.4	2
5614	442.237	9983.71	2
5618	441.744	10471.4	2
5623	442.787	2007.04	2
5630	442.749	2607.67	2
5633	442.73	2916.56	2
5636	443.496	3627.06	2
5638	442.755	4230.1	2
5645	443.24	5688.07	2
5653	442.634	6566.06	3
5656	442.809	7018.84	3
5657	443.039	7250.39	3
5659	442.584	7741.87	2
5662	443.23	8114.06	2
5665	442.912	10250.6	2
5666	442.609	10599.8	2
5670	444.844	5382.76	43
5671	444.251	2717.05	2
5678	443.903	4875.38	2
5679	443.749	5405.58	2
5684	444.217	6216.04	2
5687	443.549	7277.9	2
5688	443.766	7502.37	2
5690	443.559	7944.51	2
5691	443.743	8187.01	2
5696	445.293	7039.77	2
5698	445.261	6983.78	2
5701	446.087	4432.1	4
5703	445.738	4201.93	2
5705	446.414	4867.46	2
5706	446.456	5752.25	4
5707	446.131	5343.38	3
5710	446.009	5599.35	2
5711	446.246	5704.03	4
5712	445.758	5844.93	4
5713	446.234	7142.35	3
5714	445.915	6089.78	2
5715	445.718	6187.6	3
5716	445.778	8896.43	8
5720	446.493	7670.58	3
5722	445.502	8024.75	2
5726	447.056	6255.34	16
5732	446.749	3673.83	2
5734	447.389	3984.2	2
5737	447.067	4770.22	3
5738	447.255	5031.79	2
5739	447.078	4842.49	2
5740	447.235	4994.87	3
5744	447.475	5992.38	3
5745	447.581	6414.56	2
5766	447.537	3907.36	2
5767	448.258	3894.99	2
5771	447.996	5265.36	2
5772	448.412	5409.46	2
5775	448.512	5612.36	2
5778	447.927	5916.16	2
5779	447.994	6802.41	3
5783	448.488	6713.04	2
5784	448.478	6783.01	2
5785	447.738	7276.03	2
5788	448.238	7107.38	2
5791	448.06	7467.87	2
5792	448.167	7794.24	3
5793	448.732	9460.19	4
5796	448.246	8536.41	2
5797	448.412	5297.49	2
5798	447.927	9327.5	7
5799	447.938	9008.83	2
5800	448.224	9203.61	2
5801	447.923	9395.42	2
5802	447.935	9442.07	2
5803	448.544	9573.88	2
5804	447.912	9857.09	2
5805	448.547	9968.67	3
5806	447.926	10772.6	2
5807	447.566	10924.3	2
5808	448.288	12442.7	2
5813	448.741	2526.43	6
5826	449.298	4551.35	3
5829	449.224	4921.09	2
5830	448.812	5089.52	3
5834	449.508	5486.63	2
5835	449.283	5533.1	2
5839	449.241	6344.82	2
5843	448.813	7353.22	2
5847	449.229	8028.05	2
5850	449.227	8292.75	2
5852	448.766	8469.58	2
5855	449.282	9120.17	2
5860	449.725	11031.1	2
5862	449.483	11669.1	3
5863	449.602	11645.7	2
5868	449.721	2340.7	2
5876	449.745	3274.11	2
5879	450.605	3658.97	2
5883	449.554	4108.03	3
5884	449.726	4124.04	4
5888	450.524	4467.17	2
5889	449.771	4656.99	3
5890	449.801	4755.91	3
5893	450.238	5169.18	2
5894	449.856	5735.92	5
5896	449.918	5980.78	2
5899	450.269	6190.46	2
5903	450.114	6581.07	2
5905	449.536	6855.57	2
5906	449.977	6896.17	2
5908	450.36	7128.57	3
5911	449.939	7569.16	2
5913	450.282	7771.6	2
5914	450.407	8448.07	6
5915	450.289	8640.81	2
5918	450.292	8956.58	2
5924	450.515	10406.4	3
5926	450.481	10734.8	2
5930	450.878	1757.16	2
5937	451.369	2574.76	2
5938	451.27	4891.91	5
5943	451.519	3701.07	2
5956	450.893	4845.34	2
5959	451.373	5312.66	2
5962	450.724	5674.3	2
5963	450.945	5919.56	4
5966	451.271	6934.88	2
5970	451.349	7388.88	2
5976	451.255	7858.09	2
5977	451	8061.17	2
5980	451.581	8826.16	3
5983	451.56	10601.3	2
5987	451.25	11617	2
5996	452.405	3653.69	3
6005	452.578	4626.47	3
6010	452.004	5358.55	2
6013	452.211	5594.53	2
6019	452.013	6383.05	2
6024	452.242	7094.43	3
6027	452.104	7968.06	2
6029	452.19	8848.42	2
6035	452.541	9989.38	2
6036	451.885	10179.4	2
6037	451.91	10343	2
6039	451.919	10694.7	4
6040	452.286	11042.6	2
6044	453.126	2162.39	2
6049	452.659	3011.56	2
6053	453.242	3928.67	2
6061	453.241	4585.16	2
6062	452.999	4727.64	4
6067	452.766	5196.15	2
6072	452.763	6026.11	2
6075	453.042	6125.43	2
6076	452.907	6204.37	3
6084	453.247	8383.89	2
6088	453.205	8727.48	4
6089	453.177	9082.63	2
6092	453.475	9301.87	2
6095	452.91	10272.2	2
6096	453.13	10478.9	2
6099	453.526	11668.9	5
6100	453.634	11637.1	3
6107	454.463	3119.51	2
6110	454.557	2794.37	2
6111	453.567	3110.18	2
6112	453.723	3249.3	2
6113	453.73	3330.51	2
6114	454.471	3402.42	2
6128	454.316	4878.15	4
6131	453.756	5271.36	2
6134	453.922	5801.5	2
6135	454.628	5962.17	2
6144	453.748	7256.2	3
6156	454.221	9536.43	2
6159	453.915	9928.29	2
6162	454.266	11097.5	2
6163	453.774	11303.7	2
6169	454.895	2202.25	2
6174	454.885	2824.39	3
6175	455.168	2869.24	3
6177	454.884	3547.38	6
6179	455.756	3406.25	2
6182	454.69	3850.97	2
6200	454.983	7153.33	2
6201	455.275	7213.89	3
6206	454.839	8251.97	2
6207	455.678	8371.03	2
6209	455.482	8818.09	2
6211	455.393	7471.96	2
6216	454.521	10527.1	2
6217	455.49	10692.9	2
6220	456.756	1612.89	3
6230	456.208	3070.13	2
6233	455.748	4813.7	2
6237	456.275	3949.53	2
6243	455.702	4597.62	2
6246	456.607	4746.37	2
6253	456.95	7679.37	5
6256	456.282	6591.15	2
6257	455.745	6664.96	3
6260	456.163	6779.11	2
6262	456.281	6857.33	2
6264	455.991	7046.59	2
6267	456.074	7644.12	2
6269	455.598	8206.23	2
6270	456.267	8528.64	2
6273	455.966	10103	3
6274	455.929	10472.6	2
6288	456.769	2968.83	2
6291	456.752	3469.83	2
6301	456.908	5263.38	2
6307	457.271	5741.24	2
6308	457.259	5979.54	2
6309	457.231	6008.32	2
6311	456.798	6129.61	2
6319	457.093	7253.03	3
6323	457.266	7533.13	2
6325	457.289	7729.57	2
6329	457.266	8645.02	2
6331	457.199	8751.69	3
6332	456.594	8983.46	2
6333	456.891	9495.93	3
6334	456.61	9331.97	2
6335	457.27	10017.3	2
6339	458.25	2054.84	2
6343	458.403	2654.12	4
6349	458.32	3879.81	5
6351	457.787	3517.59	2
6357	458.026	4789.94	2
6358	458.027	5008.33	2
6362	457.821	5869.13	3
6364	458.279	6207	2
6368	458.493	6689.21	2
6372	458.096	6912.55	2
6373	457.969	6945.29	3
6380	458.242	8195.68	2
6381	458.026	8395.88	2
6382	458.074	8459.76	3
6384	457.87	9096.42	2
6385	457.774	9205.24	3
6404	458.999	2547.27	2
6408	458.556	2814.67	2
6413	459.741	3154.63	2
6416	458.975	3420.54	2
6418	459.798	4185.84	3
6421	458.904	4460.84	2
6424	459.484	4556.25	2
6431	459.627	5448.06	2
6437	458.994	6953.46	2
6440	459.258	7436.82	2
6443	458.956	8550.27	2
6445	458.754	8863	4
6447	458.705	9293.33	2
6448	459.023	9622.19	2
6450	458.593	9842.14	4
6454	459.483	10692.8	2
6456	458.622	11333.4	3
6458	459.238	12092.3	2
6468	460.228	2136.76	2
6472	460.268	3702.47	3
6481	460.012	4393.84	2
6482	460.523	4603.37	2
6483	460.29	4679.6	2
6484	460.004	7941.35	2
6492	460.242	5957.7	2
6493	460.506	5998.53	2
6497	460.259	6590.34	2
6498	460.62	6679.72	2
6499	459.738	7074.59	2
6500	459.883	7121.63	2
6501	460.011	7191.5	2
6502	460.492	7271.4	3
6509	459.76	7855.81	2
6516	460.059	8262.26	2
6521	459.943	8755.3	2
6530	461.346	6800.83	2
6539	460.782	4159.04	2
6544	461.219	4984.25	2
6550	461.237	5534.32	2
6556	460.89	6352.53	2
6561	461.229	6862.48	2
6566	461.243	8565.41	2
6568	461.256	9160	2
6570	460.772	9612.37	2
6572	460.821	10552.1	2
6576	461.91	3979.91	7
6577	462.215	1826.1	2
6579	462.17	2257.62	4
6580	462.261	2504.21	2
6582	462.246	2754.23	2
6589	462.617	3965.3	2
6590	461.754	4478.68	2
6591	461.601	4734.86	2
6592	462.235	4872.84	4
6594	462.256	7010.22	9
6596	461.935	5351.56	3
6599	462.29	6087.74	3
6600	461.999	7476.87	2
6602	461.739	6473.5	3
6607	462.497	7288.93	2
6615	462.218	9675.73	2
6617	461.931	9852.31	3
6618	462.525	7929.9	10
6624	463.228	3132.47	2
6628	462.744	4026.97	3
6633	463.529	4349.59	2
6635	463.077	4643.92	2
6639	462.746	5493.88	2
6640	463.044	5618.61	2
6642	462.578	6030.58	2
6646	462.753	6557.73	2
6648	463.274	7026.12	2
6653	462.605	7780.94	2
6654	463.26	7874.92	3
6655	462.987	8383.56	2
6657	462.571	9070.89	3
6665	463.519	9085.34	2
6677	463.557	2861.77	2
6679	464.021	2909.42	2
6686	464.414	3594.18	2
6687	463.764	3727.64	2
6691	463.771	4412.32	2
6692	464.303	4492.22	3
6695	464.677	4910.87	2
6700	464.636	5404.27	3
6701	464.015	5857.37	2
6702	463.766	5921.68	2
6703	463.713	6052.75	2
6705	464.251	6244.77	2
6707	463.601	6674.91	3
6709	464.285	8019.43	4
6712	464.258	9213.32	2
6716	464.233	9757.26	2
6718	463.734	10126.7	2
6719	463.614	10301.9	2
6720	463.525	10369.6	2
6728	465.23	2157.75	2
6733	466.156	3088.15	4
6735	464.71	3029.64	2
6743	465.446	4700.43	2
6744	465.52	4729.4	2
6745	465.269	4788.04	2
6749	464.754	5102.1	2
6763	464.553	7157.67	2
6764	464.763	7472.48	2
6773	464.812	8808.86	3
6776	465.373	9301.68	2
6795	466.207	2457	2
6798	466.391	2799.56	3
6815	466.096	3980.85	2
6817	465.886	4268.78	3
6821	465.932	4922	2
6823	466.581	5154.88	3
6825	466.237	5330.52	2
6826	465.916	5405.67	2
6829	465.767	5721.73	2
6830	465.998	5785.96	2
6832	465.986	6005.63	2
6834	466.313	6707.98	8
6837	465.742	7266.65	3
6839	465.861	7744.06	2
6840	466.748	7961.33	2
6843	466.285	8142.36	2
6849	466.07	9011.11	2
6850	466.255	9697.02	2
6855	466.29	10894.1	2
6861	466.816	1768.79	2
6864	467.425	6773.92	2
6865	467.246	2079.04	2
6869	467.226	2318.2	2
6874	467.259	2963.31	2
6875	466.751	3322.95	2
6881	466.736	4027.78	4
6884	466.824	4536.83	2
6886	466.745	4636.04	2
6887	466.571	4756.33	2
6890	467.237	7084.17	6
6891	466.806	5873.08	2
6893	466.565	6426.79	2
6894	466.918	6959.02	2
6895	467.116	7113.09	2
6896	466.883	7417.98	4
6898	467.006	7559.88	2
6899	467.011	7642.22	2
6900	466.76	7897.97	4
6901	466.667	7852.83	2
6903	467.261	8407.12	2
6904	467.542	8734.89	2
6906	466.573	10073.6	3
6908	466.618	11024.2	2
6910	466.783	12065.3	2
6924	468.408	3512.96	2
6940	468.264	5518.3	2
6948	467.97	6812.8	5
6958	467.753	8479.71	2
6960	467.586	9117.39	2
6961	467.761	9765.59	4
6966	467.766	10583.3	3
6967	467.979	11143.7	2
6969	467.766	11906.1	2
6972	469.525	2094.61	5
6991	469.417	4817.38	2
6992	469.232	4946.27	3
6996	468.88	5980.65	4
7002	469.631	6672.33	6
7005	469.253	7164.71	2
7011	469.257	8051.22	2
7016	468.769	8682.68	2
7017	469.262	8852.3	2
7020	469.544	9789.11	5
7025	469.544	10168.8	4
7026	468.589	10979.2	2
7031	470.459	3389.61	8
7035	469.762	3307.16	2
7042	470.234	3839.54	2
7044	470.748	4565.58	2
7046	470.074	5043.34	2
7047	470.097	6756.94	2
7048	470.061	5361.57	2
7053	470.243	6926.22	2
7056	470.072	6652.1	3
7066	470.832	6826.84	5
7067	469.574	7869.16	2
7068	470.501	8243.34	2
7070	469.921	9171.16	2
7072	470.261	9842.03	2
7074	470.268	10251.7	2
7076	470.274	10830.5	3
7077	470.561	11206.3	4
7095	470.783	4386.81	2
7096	471.389	4455.4	2
7098	470.747	5321.39	5
7101	471.293	5962.86	2
7102	470.766	6077.59	2
7105	471.324	6325.05	2
7108	471.447	7313.32	3
7110	471.274	7703.41	2
7115	470.814	8847.03	2
7118	471.014	10098.1	2
7119	470.69	10503.1	3
7122	471.861	11390.4	2
7130	472.24	2135.48	2
7137	472.924	3079.33	3
7139	471.921	3683	2
7142	472.449	3854.75	3
7143	472.292	3953.05	2
7145	472.754	4078.57	2
7150	471.584	4783.79	3
7151	472.299	4842.05	2
7154	471.903	5416.24	2
7156	472.415	7082.36	3
7158	472.099	5823.65	3
7165	471.865	6547.35	2
7167	472.267	6924.96	2
7171	472.295	7444.6	2
7172	472.261	7508.85	3
7173	471.794	7870.25	3
7178	472.078	8756.9	9
7180	472.6	9478.2	3
7182	472.442	9882.85	2
7183	472.259	10185.2	2
7185	471.748	10410.6	2
7187	471.974	11119.9	2
7205	472.992	3382.12	2
7209	472.855	4728.4	2
7213	473.024	5334.53	2
7215	473.027	6671.4	2
7219	473.531	5711.91	2
7226	472.801	6784.06	5
7227	472.844	6850.89	2
7229	473.016	7508.11	2
7233	472.743	8294.96	2
7234	473.194	8329.33	2
7237	473.916	6618.35	3
7238	473.34	8553.58	2
7239	472.726	8873.93	2
7240	472.763	9060.33	5
7241	472.802	9338.18	9
7243	473.28	9696.99	3
7245	472.813	9996.18	2
7256	473.723	2270.74	2
7261	474.487	3754.29	2
7263	474.424	3693.96	2
7267	474.793	4181.73	2
7272	473.769	4957.07	2
7274	473.753	5272.06	2
7275	474.249	5492.62	2
7277	474.524	5591.55	2
7278	474.15	5936.75	3
7282	473.761	6258.6	2
7284	474	6398.91	2
7290	473.775	7289.13	2
7294	473.735	7624.46	2
7295	474.575	6270.81	2
7299	474.266	8104.6	2
7300	474.515	8236.59	2
7301	474.04	8377.93	2
7302	473.768	8430.98	2
7303	474.069	8667.21	2
7306	474.594	9073.56	2
7307	474.575	9753.69	2
7311	474.109	10705.3	2
7312	473.75	10942.6	5
7313	473.747	11236.1	2
7314	473.59	11482.3	2
7316	473.587	11801	2
7322	475.089	1924.69	2
7324	474.904	2040.71	3
7333	474.907	2748.36	3
7335	475.493	2958.22	2
7341	474.991	3987.71	2
7346	475.204	6336.03	4
7348	475.159	5204.48	3
7353	475.517	6159.16	4
7354	475.273	6385.28	2
7359	475.567	6932.62	5
7360	475.29	7143.37	5
7366	474.681	8003.02	2
7374	474.879	9134.53	2
7377	475.502	9450.18	3
7379	474.9	9753.3	2
7384	474.933	11672.4	2
7394	476.521	2779.15	2
7395	476.246	4013.07	2
7396	476.225	2695.79	2
7397	476.243	2895.95	2
7399	476.51	3418.68	2
7402	476.701	3811.38	3
7403	476.294	4088.94	2
7409	476.062	4545.49	2
7412	476.285	4976.59	2
7415	476.012	5627.26	2
7416	475.886	5696.96	2
7421	476.679	6612.89	4
7422	476.521	6745.88	2
7424	475.74	7332.53	2
7425	476.515	7679.71	2
7431	475.618	8949.38	2
7432	475.955	9172.12	2
7436	476.365	10054.3	2
7438	476.484	10408.1	3
7441	475.603	12042	2
7447	477.052	2224.55	2
7453	476.988	4014.73	2
7458	476.754	5072.73	3
7470	476.735	7568.76	2
7472	476.663	7633.15	2
7473	477.238	7758.34	2
7476	477.637	8276.47	3
7479	477.305	8548.67	2
7481	476.635	9044.89	2
7483	476.766	9647.2	3
7485	477.293	10331.1	2
7488	477.025	10973.3	2
7490	477.139	11225.4	3
7491	476.779	11399.1	2
7499	478.25	2329.32	4
7507	477.934	4037.95	2
7509	478.75	3474.16	2
7510	477.79	3615.79	2
7511	478.024	3713.34	2
7531	477.682	6812.51	3
7533	478.246	6936.71	2
7534	478.527	7889.34	4
7544	478.021	7890.54	3
7548	478.257	8451.94	2
7549	477.884	8643.2	4
7554	478.201	9156.03	2
7556	478.029	9843.23	2
7557	477.821	10004.9	2
7559	477.952	10278.4	2
7560	478.859	10635.6	3
7573	479.509	3813.02	4
7575	478.573	2883.59	2
7577	479.519	3218.5	2
7578	478.997	3380.1	2
7580	478.788	3771.4	2
7587	479.032	4467.9	2
7591	478.793	4976.17	2
7592	479.041	5089.99	2
7593	478.925	5372.08	2
7594	479.278	5527.31	2
7595	479.253	5616.84	3
7596	478.775	5721.49	2
7602	478.918	6266.35	2
7606	479.178	9086.18	3
7610	479.283	7151.16	2
7616	479.05	8216.53	2
7617	479.29	8267.3	2
7620	478.74	9379.25	7
7625	479.31	10805.2	2
7627	478.615	11306.5	2
7629	478.561	11841.5	2
7630	478.829	11968.2	2
7636	479.569	2390.6	2
7645	479.76	3332.83	2
7646	479.928	3414.54	2
7655	480.548	4011.65	2
7656	480.544	6852.42	5
7658	480.275	4636.35	5
7660	480.208	6806.36	3
7664	480.577	5396.82	2
7668	480.51	6062.8	2
7671	480.186	6731.32	2
7674	480.312	7195.73	3
7676	479.593	7054.56	2
7678	480.29	7269.09	2
7679	480.601	7336.89	4
7680	480.85	7466.43	2
7681	480.541	7509.78	2
7686	480.89	7956.28	6
7688	480.404	8621.93	2
7690	479.958	8761.73	2
7691	480.27	8829.59	2
7694	480.446	11040.4	2
7695	479.79	11146.6	2
7697	480.011	11244.4	4
7708	480.568	2521.65	2
7713	481.266	2969.38	2
7721	481.317	4458.43	4
7722	480.993	7674.06	2
7729	481.269	5840.72	3
7735	480.952	6045.06	2
7738	481.263	6182.99	2
7739	480.748	6308.97	2
7743	480.692	6981.61	2
7744	480.942	7890.39	3
7745	481.271	7385.85	2
7750	481.495	8191.56	2
7757	481.014	9026.86	2
7760	480.768	9967.76	2
7767	480.607	12033.4	2
7778	482.213	3745.41	2
7779	481.873	3962.21	2
7784	482.025	5924.29	3
7785	481.993	5104.5	2
7786	481.751	5249.12	3
7792	482.26	6209.24	3
7794	482.238	6453.87	2
7801	482.161	8133.58	2
7805	482.213	8974.8	2
7807	483.012	10610.2	3
7809	482.266	9741.65	2
7810	482.246	9947.72	2
7812	482.234	10634.3	2
7814	481.93	11558.4	2
7822	482.728	2267.39	2
7829	483.537	4108.07	2
7834	483.861	4838.53	2
7838	483.093	5574.44	2
7847	482.838	7164.27	2
7849	483.119	7268.77	5
7851	483.014	7557.04	2
7853	483.603	8557.89	3
7854	483.069	8622.1	2
7857	483.425	9240.03	2
7859	483.257	10167.4	2
7867	484.511	3206.94	2
7872	484.288	4641.35	2
7875	484.433	3557.91	2
7887	484.258	5026.04	2
7894	483.996	5737.73	2
7897	484.355	6081.1	2
7903	484.262	6696.78	11
7904	483.892	6967.47	5
7905	483.594	7070.16	2
7907	484.72	7354.29	2
7912	484.285	8031.92	2
7913	484.259	8149.63	2
7918	484.026	8818.51	2
7920	484.037	9306.18	2
7921	483.711	9415.09	3
7922	484.243	9537.03	4
7924	484.249	10107.5	2
7925	484.149	10261.9	4
7927	483.892	10768.4	2
7937	485.595	2050.21	3
7945	485.482	3435.22	2
7953	485.25	4683.76	2
7955	484.569	4887.45	2
7956	485.094	5110.32	2
7964	485.019	6267.83	2
7967	484.947	7120.43	3
7971	485.216	8025.48	2
7976	484.559	8713.87	2
7977	484.919	8871.64	2
7982	484.746	9833.88	2
7983	484.765	9899.83	2
8005	485.986	2578.39	2
8011	486.254	3485.87	2
8014	485.775	3786.8	2
8015	485.798	3981.46	2
8016	486.402	4773	4
8022	486.394	5317.09	2
8023	486.286	5381.21	2
8024	485.978	5422.31	2
8025	486.941	5519.37	3
8026	485.527	5806.54	2
8027	485.751	5947.9	2
8029	485.755	6379.25	2
8031	486.226	6640.94	2
8033	486.241	6793.82	2
8037	485.74	7280.65	2
8040	485.772	7609.81	2
8044	485.914	8099.89	2
8050	485.996	8795.26	2
8051	486.292	8940.94	2
8052	485.773	9011.78	2
8053	486.292	9070.56	2
8070	487.251	3060.41	2
8071	487.015	3097.85	2
8081	487.038	4835.68	2
8084	487.765	5587.48	2
8091	487.372	6770.67	2
8095	487.28	7348.58	2
8096	486.763	7478.59	3
8102	486.919	9487.84	2
8103	486.635	9662.26	2
8122	488.013	3497	2
8123	488.037	5347.47	5
8128	487.899	3626.92	3
8131	488.611	3900.75	3
8132	488.264	5178.24	4
8142	487.921	5491.48	2
8144	488.257	5795.9	2
8147	488.28	6515.32	2
8151	488.032	7006.03	2
8152	488.237	7073.15	2
8154	488.279	7169.83	2
8158	488.464	7868.24	3
8159	488.377	7964.9	2
8161	488.027	8162.9	4
8162	487.513	8313.44	2
8164	487.917	8438.57	2
8170	487.875	9605.67	2
8171	487.769	10147.2	2
8172	488.273	10253.3	2
8173	488.303	10379.8	2
8180	489.242	4661.33	2
8185	488.98	2293.36	2
8186	489.487	2389.52	2
8191	489.077	6262.54	2
8196	490.11	3732.54	3
8199	488.748	4523.18	2
8200	488.767	4772.99	2
8204	489.389	5123.55	4
8206	489.292	5116.69	3
8207	488.795	5302.86	2
8209	489.28	5958.18	2
8213	488.9	6422.14	2
8216	488.778	6596.54	2
8217	488.777	6873.41	2
8218	489.598	7517.84	3
8219	489.525	7766.54	2
8221	489.288	8301.32	3
8222	489.391	8404.46	2
8224	488.578	8796.4	4
8230	489.183	9878.6	3
8236	488.602	10963.4	2
8238	488.952	11663.1	2
8239	489.5	11723.4	3
8241	488.779	12081.7	2
8258	490.764	4155.11	2
8259	489.993	4167.15	2
8262	489.923	4474.34	2
8266	490.3	5240.22	2
8268	490.607	5644.9	2
8281	490	7246.42	2
8291	490.234	9458.5	2
8292	490.24	9593.75	2
8294	490.253	9994.28	2
8296	489.821	10315.5	2
8297	489.8	10734.3	2
8299	490.265	10849.4	2
8302	489.9	11583.2	3
8311	490.933	3399.81	2
8312	491.271	3908.75	2
8322	490.777	5346.4	2
8323	491.052	5144.55	2
8328	490.792	5916.68	2
8329	490.811	6175.74	3
8331	490.929	6358.87	2
8333	491.323	7038.5	4
8334	491.379	7316.43	4
8335	491.265	7344.45	3
8338	491.49	7777.66	2
8341	491.697	6906.15	3
8348	490.824	9282.73	3
8349	491.284	9546.47	2
8352	490.913	9816.21	2
8359	491.762	10478.3	2
8368	491.765	2770.89	2
8372	492.246	4347.92	3
8375	491.74	3805.92	2
8380	492.953	3924.71	3
8381	492.128	4763.31	2
8383	491.824	4956.64	2
8385	492.272	5878.42	4
8394	492.293	6632.28	2
8402	492.298	7628.88	2
8403	492.253	7845.29	2
8409	492.422	8728.12	3
8410	492.269	8778.52	2
8411	492.299	9302.92	3
8412	492.638	9188.11	3
8415	492.443	10624.3	3
8417	492.431	10775	2
8418	492.269	11442.6	2
8421	492.743	1706.72	2
8431	493.52	2867.53	2
8436	492.721	3656.01	2
8445	492.805	4893.22	2
8447	493.539	5255.42	2
8452	492.796	5543	2
8453	493.279	5608.02	2
8455	492.844	5859.94	2
8459	492.661	6161.79	2
8463	493.173	6940.3	2
8473	492.751	9619.39	3
8474	493.542	9768.78	2
8476	493.252	10020.9	2
8489	493.99	4683.64	2
8491	493.557	2680.83	2
8493	494.206	4317.99	6
8502	494.171	4576.61	2
8505	494.424	5110.45	2
8510	494.25	7959.95	3
8519	494.092	6731.09	2
8521	493.907	7018.82	2
8522	494.398	7268.04	2
8523	495.049	6359.55	4
8524	494.415	7529.49	2
8528	494.364	8023.55	4
8529	494.495	8008.6	2
8530	494.257	8228.27	2
8535	494.909	9084.15	3
8541	494.29	10631.4	3
8542	494.412	10579.7	3
8552	495.749	2578.42	2
8555	495.496	2774.23	2
8557	495.025	2954.59	2
8564	494.74	4129.84	2
8566	495.114	5579.06	4
8569	494.555	5449.66	2
8577	494.891	6646.64	2
8583	495.09	7435.76	2
8585	494.729	7635.69	2
8592	495.22	8445.82	2
8594	494.628	8646.25	3
8596	495.266	8968.34	2
8597	495.293	9263.91	3
8602	494.768	9584.68	2
8606	495.505	10315	2
8609	495.15	11973.7	2
8622	496.497	3771.78	2
8625	495.912	4095.94	2
8627	495.782	4253.1	2
8632	495.748	5030.06	6
8633	495.772	5236.49	2
8635	496.251	6608.01	2
8636	496.58	5515.07	5
8642	496.504	6112.7	2
8643	496.006	6361.02	2
8648	496.011	6930.01	2
8650	495.769	7052.63	2
8655	496.426	7678.86	2
8656	496.262	7746.72	2
8661	496.041	8339.23	2
8664	495.756	8803.82	2
8668	495.636	10052.6	6
8682	497.25	2838.56	2
8685	497.43	3259.86	2
8691	497.347	4927.45	2
8692	497.452	4971.36	2
8696	497.275	5710.95	2
8699	497.305	5832.99	5
8700	497.018	5925.56	2
8703	497.213	6237.21	2
8706	497.248	6402.26	2
8707	497.244	6483.8	2
8710	497.239	6852.17	2
8712	497	7120.75	2
8714	497.385	7354.41	5
8715	496.915	7460.29	2
8719	497.271	8066.1	2
8726	496.932	8662.99	2
8734	496.837	10082.4	3
8735	496.784	10745.9	2
8736	496.999	11049.2	2
8747	497.703	2506.56	2
8748	498.256	2558	2
8753	497.599	3458.49	2
8755	498.934	3899.49	3
8759	498.298	4314.51	2
8760	498.009	4368.94	2
8766	497.943	4801.49	2
8776	498.423	6496.2	2
8778	497.774	7211.33	2
8783	497.944	7994.41	2
8787	497.914	8524.96	2
8789	498.289	9080.86	2
8790	498.263	9161.28	2
8793	497.713	9323.27	2
8796	498.284	9863.9	2
8799	498.195	10899.8	3
8800	497.567	11470	2
8807	498.747	3368.09	2
8811	499.229	4049.73	2
8815	499.026	5032.81	2
8818	498.547	5288.4	2
8823	499.381	5856.31	3
8825	498.998	6083.01	2
8828	499.288	6515.09	2
8831	498.761	6959.06	2
8834	499.47	5895.26	3
8836	499.124	8140.24	3
8837	498.577	8195.06	2
8838	499.282	8684.22	2
8844	499.277	10575.2	2
8845	498.613	10836.9	2
8857	499.808	2981.1	6
8859	499.762	3547.96	2
8863	500.759	3728.89	2
8870	499.878	4248.06	2
8873	500.265	4578.87	2
8875	500.57	4990.52	2
8884	499.804	5931.15	3
8886	500.272	6216.31	2
8892	500.272	6403.61	2
8893	499.751	6585.84	2
8895	500.033	6646.62	2
8910	499.737	8570.53	2
8913	500.026	9320.92	2
8924	499.593	11355.1	4
8934	501.452	4777.69	5
8938	501.489	2928.09	2
8944	500.931	4660.3	2
8945	500.802	4715.66	2
8947	501.399	6851.87	2
8950	501.553	6065.34	2
8952	501.544	6358.82	2
8954	501.207	6551.58	2
8956	501.237	7043.42	2
8963	501.265	7592.65	2
8964	501.287	8064.84	4
8966	501.013	8315.62	2
8971	501.069	8996.42	6
8972	500.831	8846.77	3
8979	501.26	9665.47	2
8980	500.933	9735.8	2
8981	501.757	9844.71	2
8982	500.76	10021.5	3
8986	501.27	11447.2	2
8987	501.609	11594.1	2
9020	503.316	6256.06	3
9022	502.58	5020.78	2
9023	501.988	5391.53	4
9027	502.254	6147.33	2
9032	501.796	6726.5	2
9034	501.733	6881.72	2
9040	501.747	8404.64	2
9041	502.282	8596.15	2
9042	501.739	8646.59	2
9045	501.787	10160	2
9046	501.941	10413.2	2
9047	501.872	10631	3
9048	502.655	6538.36	6
9057	503.23	2493.84	4
9060	503.619	2797.31	2
9066	503.272	4348.3	2
9071	503.107	5470.87	2
9077	502.945	6286.97	2
9082	503.437	7437.26	2
9083	503.788	7523.08	2
9086	502.876	8252.81	2
9089	503.076	9053.6	3
9090	502.766	9128.6	2
9093	504.143	9481	3
9096	503.173	8976.1	2
9108	504.019	2811.54	2
9110	504.318	3175.25	2
9112	504.751	3696.11	2
9113	504.443	5427.05	5
9114	504.645	4091.7	4
9119	503.742	4879.6	2
9124	504.304	5687.18	2
9125	504.292	5904.34	2
9126	504.277	6006.46	2
9131	504.087	6589.31	2
9133	504.437	6799.84	2
9134	503.765	6893.53	2
9136	504.381	7408.91	2
9137	504.119	7735.3	2
9138	504.251	7960.22	3
9141	504.597	9093.05	2
9142	504.489	8615.54	2
9152	503.852	9828.15	2
9153	503.743	9879	2
9162	505	2201.54	2
9163	504.737	2297.83	2
9166	504.786	3394.56	2
9173	505.259	4731.48	15
9174	505.77	5028.15	2
9181	505.29	5767.72	2
9182	505.288	5896.9	4
9183	505.007	6334.1	2
9186	505.117	6831.34	2
9187	504.939	6923.27	2
9188	505.033	7117.54	4
9196	504.75	8385.83	2
9199	504.771	8824.94	2
9200	505.319	8904.28	2
9206	505.162	10487.4	3
9212	504.903	11673	3
9213	505.595	11595.7	2
9217	506.204	3693.44	2
9226	506.309	6687.15	3
9227	506.287	3297.63	2
9228	506.365	3498.08	4
9233	506.268	4929.79	2
9234	505.775	5306.76	2
9235	506.17	5418.49	4
9236	506.089	5828.63	2
9238	506.015	6232.9	3
9239	505.913	6297.52	2
9241	506.254	6424.9	3
9243	506.263	6568.22	2
9247	506.158	7938.6	3
9248	506.29	7984.39	2
9249	506.637	8173.82	3
9250	505.89	8439.84	2
9251	505.614	9221.89	2
9252	505.699	9302.98	3
9256	506.482	8869.9	8
9259	506.627	11512.4	3
9260	505.563	11859.8	2
9267	507.24	1994.85	2
9268	507.468	1986.64	2
9273	507.25	2677.67	4
9279	507.309	4088.51	2
9281	506.817	4254.5	2
9286	507.49	5015.19	2
9287	507.55	5147.2	3
9288	507.26	5486.51	2
9293	506.922	6106.6	2
9295	507.293	6678.07	2
9298	507.767	7223.51	2
9299	506.914	7424.04	4
9301	506.796	7999.07	4
9303	507.108	8326.56	2
9317	506.616	9852.74	2
9319	507.25	10038.5	2
9321	506.948	10585.5	2
9328	508.599	3116.1	3
9330	508.241	2509.24	2
9335	508.026	3396.28	2
9337	508.214	4627.6	8
9338	507.789	3963.98	2
9340	507.671	4289.1	2
9342	507.803	4979.93	2
9348	507.755	5621.06	6
9349	507.798	5770.14	2
9356	507.977	6757.38	2
9361	507.979	7044.51	3
9362	507.899	7074.4	2
9363	508.15	7142.96	2
9365	507.608	7687.57	2
9372	508.262	8799	2
9373	507.767	9018.59	2
9374	508.03	9128.2	3
9378	507.798	11260.2	6
9388	508.931	2583.06	3
9397	509.34	3864.96	5
9398	508.814	4057.83	2
9401	508.918	4555.52	4
9405	509.497	5265.58	2
9406	508.794	5491.34	2
9410	509.265	6260.43	4
9414	508.811	6533.37	2
9417	509.433	6727.98	2
9419	508.914	6881.56	2
9423	508.924	7102.58	2
9426	509.155	7357.2	2
9428	509.035	7568.59	2
9429	509.502	7627.01	2
9430	510.037	7904.02	3
9435	509.299	8899.73	5
9436	509.63	9076.99	2
9437	509.762	9195.96	2
9441	508.753	9640.47	2
9444	509.775	9990.71	2
9445	509.287	10832.8	2
9457	510.277	3164.76	2
9458	509.831	3314.99	2
9465	510.317	4223.35	3
9471	510.397	4954.58	3
9472	510.105	5008.37	3
9473	510.019	5312.92	2
9475	509.848	5402.18	2
9480	510.268	5635.58	2
9484	510.007	5981.09	3
9491	510.509	6861.53	3
9492	510.26	6963.62	3
9495	510.114	7701.94	3
9498	509.788	8239.17	2
9502	510.267	8586.32	2
9510	510.317	9873.72	2
9511	509.782	9946.39	2
9515	509.781	11450.6	2
9524	511.242	3391.81	2
9536	511.807	4845.54	2
9537	511.523	5238.51	2
9540	511.369	5758.3	2
9542	510.823	6308.25	2
9549	510.925	7462.85	2
9553	510.772	7809.1	2
9555	510.939	8005.56	3
9556	510.79	8081.74	2
9559	511.425	9232.43	2
9560	511.264	9306.27	3
9561	510.623	10499.1	2
9562	511.385	10643.5	3
9564	511.295	10957.2	2
9570	512.455	2522.61	4
9582	512.771	4425.3	2
9584	511.997	4786.05	2
9585	512.282	5032.74	2
9590	511.686	5463.96	2
9591	512.024	5911.5	2
9593	511.942	6194.91	2
9600	511.716	7111.79	2
9603	512.6	7373.64	2
9609	512.572	7910.09	5
9611	512.441	8174.17	3
9612	512.37	8250.18	2
9615	511.799	8526.95	2
9620	512.626	8844.43	2
9622	511.751	9627.66	5
9624	511.62	9763.45	2
9627	511.963	10302.2	2
9628	511.706	10413.8	4
9629	511.955	10567.8	2
9630	511.957	11129.7	3
9631	512.242	11364	2
9643	513.094	4168.84	2
9655	513.351	4921.7	2
9657	513.918	5329.64	2
9658	513.447	5426.78	2
9659	513.406	5644.4	5
9661	512.761	6098.24	3
9662	513.273	6328.31	2
9668	513.254	7034.63	2
9678	513.269	7674.54	2
9681	512.922	8708.95	2
9682	513.516	8888.24	2
9684	513.294	9084.73	3
9685	513.295	9156.79	2
9687	513.256	9454.91	2
9690	513.304	11019.1	2
9691	512.547	11173.8	3
9698	514.088	2302.91	2
9700	514.284	2403.97	2
9702	514.441	2873.34	3
9704	514.555	3210.26	2
9714	514.252	4837.09	2
9715	514.416	4826.2	2
9716	514.137	4987.59	3
9719	513.801	5789.12	5
9720	514.306	6008.2	2
9723	514.262	6428.37	2
9724	514.441	6482.78	3
9725	513.643	6704.19	2
9733	514.808	7751.99	5
9734	514.282	9264.44	2
9740	513.937	8575.55	2
9742	514.239	8773.61	2
9744	514.011	9281.07	5
9746	513.909	9638.72	2
9749	514.307	9814.88	2
9759	514.13	11258.8	2
9760	513.847	11423.6	2
9775	514.986	2449.18	2
9777	514.769	3950.18	2
9781	515.793	3317.73	2
9784	514.941	4551.27	2
9787	515.607	5369.5	7
9789	514.921	5378.36	3
9791	514.809	5528.53	2
9795	514.836	6232.7	2
9808	514.805	8329.43	2
9809	515.2	8426.27	3
9817	515.259	9585.56	2
9828	515.768	2116.97	2
9833	516.482	2513.88	2
9852	516.935	4976.28	3
9863	516.392	6941.99	9
9865	517.445	6109.97	4
9866	516.274	7309.99	2
9874	515.666	8246.09	2
9877	516.439	9297.12	3
9881	516.299	10400	2
9887	515.922	11564.5	4
9898	517.273	4601.56	3
9911	517.606	3503.79	2
9922	517.602	6150.4	2
9923	516.603	4456.81	2
9926	516.855	5154.03	2
9935	516.94	6281.45	2
9940	517.394	6753.84	2
9946	517.52	8109.67	2
9951	518.782	8092.39	33
9959	517.284	10999.9	2
9965	517.745	2347.62	2
9972	518.271	4461.2	2
9974	518.444	5807.79	3
9977	518.251	4607.56	2
9980	518.352	5452.56	2
9984	517.639	5683.25	2
9994	517.798	6820.6	2
9997	518.269	7408.92	2
10001	517.936	8005.53	2
10006	517.758	8867.56	2
10009	517.962	10576.4	2
10017	517.566	11387.6	2
10021	519.515	5753.94	31
10023	519.222	2994.85	2
10026	519.277	4684.13	2
10028	519.291	4983.01	2
10035	518.606	6243.78	2
10037	519.262	6870.07	2
10043	518.947	7558.97	3
10045	519.657	8367.58	3
10046	519.38	8918.27	3
10050	518.617	9254.37	2
10051	519.243	9607.8	2
10052	519.233	9680.32	2
10056	520.267	2245.56	9
10059	520.469	5745.85	3
10061	520.266	3055.34	2
10063	520.274	3721.39	2
10067	520.545	3896.13	2
10070	520.547	4518.42	4
10071	520.312	4335.54	2
10072	519.605	5075.56	2
10077	520.606	5928.15	2
10083	520.278	6754.35	2
10084	520.312	7189.48	2
10086	520.292	7556.43	2
10087	520.27	7667.53	3
10090	519.874	8067.68	2
10093	520.446	8825.51	2
10096	519.709	9549.22	2
10100	519.931	10551.3	2
10102	520.285	11232.9	2
10103	521.76	1884	2
10106	521.376	3243.78	3
10113	520.815	4768.87	2
10116	520.904	5827.93	2
10118	520.808	6092.76	2
10130	521.544	7462.85	2
10133	521.292	7974.26	2
10134	521.761	8103.65	2
10135	521.265	8639.24	2
10137	521.025	9510.77	2
10138	521.366	9900.49	2
10139	521.182	9979.6	2
10141	520.505	10306.4	2
10142	521.262	10454.5	2
10144	521.3	11110.9	2
10152	522.265	2328.08	2
10154	522.267	4538.64	6
10160	522.269	4428.63	2
10162	521.853	4910.74	2
10170	522.308	5651.63	2
10179	521.594	6535.99	4
10182	522.271	6831.86	2
10188	522.507	7587.49	2
10194	522.641	8544.74	3
10197	521.778	8747.81	2
10201	522.1	9645.92	2
10202	522.086	9709.01	2
10203	522.168	9932.66	2
10209	521.759	11292.1	2
10225	523.443	4709.56	3
10232	523.287	4011.95	2
10239	523.294	5999.01	2
10245	523.266	6602.65	3
10248	522.783	7079.48	2
10249	522.942	7135.22	2
10250	522.875	7642.36	2
10251	522.941	7687.94	2
10255	522.932	8182.47	2
10256	523.533	8488.37	2
10258	523.031	8896.19	2
10261	523.147	9006.27	2
10270	523.264	10101.7	2
10271	523.018	10386.6	2
10274	523.288	11029.9	2
10283	524.259	2305.51	2
10287	524.106	3675.43	4
10288	523.809	2967.57	2
10292	524.765	2652.85	2
10297	524.618	5039.22	7
10299	524.272	5227.75	5
10300	524.494	5049.55	3
10311	523.844	5739.65	2
10312	524.949	5118.39	3
10313	524.157	5834.73	3
10315	524.797	6254.76	2
10316	523.944	6327.84	3
10319	523.978	6475.18	2
10321	524.261	6566.33	2
10323	524.537	6867.2	2
10324	524.277	6948.7	3
10325	524.539	7141.77	2
10326	524.528	7190.13	2
10327	524.071	7298.69	5
10331	523.928	7833.15	2
10333	523.579	7929.56	2
10337	524.128	8291.16	3
10339	524.211	8440.21	3
10346	524.279	9556.05	2
10349	524.758	9915.92	2
10350	524.758	10269.9	3
10362	524.481	11113.1	3
10364	525.252	1832.16	2
10369	525.598	2915.67	3
10371	525.283	4410.09	2
10378	525.387	4166.08	2
10382	525.285	5819.22	2
10386	525.524	6174.87	2
10390	525.413	6846.14	2
10395	525.52	8023.25	3
10396	525.289	8179.38	2
10399	525.439	8519.38	2
10400	525.53	8726.61	2
10402	525.461	8851.91	2
10412	525.076	9917.49	2
10413	524.918	10595.5	2
10414	525.279	10733.9	4
10415	524.614	11064.5	2
10418	524.661	11343.6	2
10419	525.038	11458.2	2
10420	524.801	11762.4	3
10427	526.86	2303.15	16
10430	525.746	2824.88	2
10441	525.776	4525.52	3
10447	526.288	5085.51	3
10452	526.157	5416.17	2
10456	525.772	5930.74	2
10459	526.419	6388.01	2
10462	526.265	6549.3	2
10465	526	7541.32	4
10472	526.178	8947.3	3
10478	525.767	11005.4	2
10479	526.166	11136.1	2
10489	526.879	3093.67	4
10493	527.325	3621.29	2
10494	527.747	3701.97	2
10499	527.267	4700.83	2
10500	527.038	5007.21	2
10504	527.409	5461.15	2
10508	527.553	5727.46	2
10510	526.926	6092.11	2
10512	527.638	6266.5	3
10513	527.306	6337.56	2
10517	527.298	6964.28	4
10520	527.607	7258.41	2
10522	527.13	7406.33	2
10528	527.44	8568.82	2
10531	527.595	9337.34	2
10533	527.279	9996.85	2
10539	527.628	10742.4	4
10544	528.529	1612.92	2
10546	528.511	3528.66	2
10555	528.309	4140.88	3
10562	527.96	5160.37	2
10563	528.272	5302.72	2
10566	528.539	5535.79	2
10569	527.789	5784.92	2
10571	528.076	5834.17	2
10573	528.332	6163.61	2
10576	528.403	6590.93	2
10579	527.956	6865.45	2
10587	527.971	7629.89	3
10588	527.817	7734.94	3
10590	528.014	8339.62	2
10592	528.55	8472.22	2
10593	528.446	8718.64	2
10598	528.293	9920.42	2
10600	528.482	10275.3	2
10605	527.863	11596.6	3
10615	529.539	2421.99	2
10621	529.456	3389.19	2
10623	529.299	4103.34	4
10627	529.589	4975.87	2
10635	529.493	6062.05	2
10637	529.043	6487.37	2
10643	530.341	7179.03	4
10649	529.474	8885.99	5
10650	529.291	8996.53	2
10651	528.764	9735.76	2
10652	529.265	9171.65	2
10653	529.306	9463.35	2
10655	529.303	9646.78	2
10658	529.123	10493.2	2
10660	528.837	10923.2	2
10661	528.963	11276.1	2
10673	529.786	4545.33	2
10674	529.716	4625.02	2
10676	529.971	4867.73	2
10680	529.791	6995.22	2
10686	529.793	6648.84	3
10687	530.124	6769.27	3
10689	530.611	6959.52	2
10692	529.683	7374.01	3
10693	530.251	7597.19	2
10694	529.585	8543.05	9
10695	530.056	8124.74	3
10697	529.752	8301.2	2
10698	529.809	8588.94	2
10703	530.046	9398.64	2
10705	530.037	9532.79	2
10707	529.793	9820.95	3
10709	529.622	9920.13	2
10715	529.929	11095.5	3
10725	530.767	2372.57	2
10727	531.289	4932.22	2
10729	531.321	2968.2	2
10731	530.772	4073.32	2
10732	531.271	4369.07	2
10733	531.038	4789.42	2
10734	531.507	6510.6	4
10735	531.475	5201.81	3
10738	530.633	6128.23	2
10740	531.76	6293.82	4
10741	531.442	6336.35	2
10742	531.722	6378.33	4
10745	530.625	6649.24	2
10747	530.693	7080.34	2
10751	531.48	8039.53	2
10752	532.461	7281.8	4
10755	530.793	8502.14	2
10763	530.788	10260.4	3
10769	531.269	11316.7	2
10782	532.527	4645.16	2
10784	532.759	3909.75	2
10789	532.263	4710.46	3
10790	532.511	4897.87	2
10811	532.246	8275.5	2
10816	532.635	8808.88	2
10819	531.72	9466.93	2
10823	532.325	10393.6	2
10826	532.027	11451	2
10832	533.214	4107.48	5
10834	532.599	2475.41	2
10839	533.478	3169.84	2
10840	533.598	2956.8	3
10845	533.078	4507.23	2
10848	533.024	4965.83	2
10852	533.281	5990.53	2
10857	532.925	6503.48	2
10863	533.786	7087.59	2
10866	533.456	7710.72	2
10867	532.959	7750.07	2
10872	533.131	8348.01	2
10874	532.798	8578.09	2
10877	533.306	8919.14	2
10879	532.631	9541.44	2
10880	533.027	9612.7	2
10881	533.021	9663.75	2
10884	532.774	9855.36	3
10886	532.606	10726.6	2
10887	532.775	10780.6	2
10888	532.777	11398.3	2
10890	533.714	11550.8	3
10891	534.683	4615.83	2
10893	534.017	4667.16	3
10898	534.246	2873.22	2
10901	534.008	3368.88	2
10921	534.099	6267.37	2
10922	533.563	6317.29	2
10924	534.306	6573.26	2
10931	534.275	7370.48	2
10936	534.072	7817.42	2
10944	533.802	9174.69	2
10947	534.138	9582.79	2
10949	533.586	9979.31	3
10950	533.587	10121.8	4
10952	533.745	10537.5	2
10954	534.344	10662.8	2
10956	534.079	11665.6	3
10957	534.295	11871.5	2
10960	535.626	6365.54	31
10968	535.29	3649.72	2
10969	535.272	3998.44	2
10976	534.806	4880.3	2
10980	534.771	5343.88	2
10986	534.717	5663.77	2
10988	535.436	6106.43	2
10990	534.801	6469.7	2
10991	535.582	6656.77	3
10992	535.331	6734.08	4
10999	534.808	7948.51	2
11000	535.304	8465.75	2
11004	535.027	9127.11	2
11013	536.999	6455.26	37
11017	535.951	4996.96	3
11018	535.965	6160	2
11019	536.052	5394.01	2
11021	536.824	6893.21	2
11024	536.142	6218.32	4
11027	535.814	6953.86	2
11030	536.324	7469.66	2
11034	536.05	8330.36	4
11038	536.055	8807.89	2
11039	535.948	9016.62	2
11040	536.279	10002	2
11044	538.071	4221.64	10
11049	537.42	4562.15	3
11052	537.283	5846.58	2
11053	537.291	5834.16	3
11055	537.322	5549.11	2
11059	537.275	6913.49	2
11062	537.291	7393.43	2
11070	536.804	9698.02	2
11072	536.804	10437.8	2
11073	537.34	11969.1	2
11079	537.776	2510.45	2
11081	538.275	5382.53	4
11089	538.599	4808.27	6
11094	537.819	4664.69	2
11098	538.067	5237.65	4
11108	538.618	6337.61	3
11113	537.819	6832.05	2
11114	538.274	6911.21	2
11116	538.469	7554.69	3
11118	537.797	7731.26	2
11124	538.537	8587.35	2
11126	538.144	8966.83	2
11127	538.278	9187.42	2
11129	537.638	9430.83	2
11130	537.638	9430.94	3
11137	539.27	2267.87	2
11144	539.249	3666.73	2
11148	538.801	4183.73	2
11154	538.973	5367.86	5
11164	538.94	7035.89	2
11165	538.804	7480.44	2
11167	538.807	7940.34	2
11169	538.919	8252.25	2
11170	538.919	8333.67	2
11171	538.917	8414.7	2
11172	538.774	8484.06	2
11175	539.038	8647.07	3
11177	539.747	9061.25	3
11182	539.286	10192.5	7
11184	539.205	10601.8	4
11185	539.367	10769.9	4
11201	539.597	2659.98	2
11216	540.243	7441.53	2
11217	540.608	5619.68	2
11218	540.278	5684.64	3
11219	540.56	5732.65	2
11221	540.109	5837.83	2
11229	540.405	6328.77	3
11234	540.299	7033.66	2
11236	540.037	7194.55	2
11237	540.315	7278.77	3
11238	539.946	7390.22	3
11239	540.032	7656.25	2
11243	540.509	8148.99	3
11244	540.246	8748.42	3
11245	540.461	9009.27	2
11246	540.017	9433.53	2
11247	540.279	9650.41	2
11248	539.781	9680.32	2
11255	539.77	11255.6	2
11262	541.268	2092.76	2
11272	540.899	4567.29	3
11277	540.979	5649.91	2
11280	541.79	5929.87	2
11282	541.677	6680.86	8
11284	541.508	6965.99	2
11289	540.747	7801.9	2
11290	541.534	7929.59	2
11292	541.051	8030.12	2
11293	540.804	8076.12	2
11306	541.289	9885.93	3
11307	541.117	9962.76	2
11308	540.914	10032.7	2
11309	541.283	10231.3	2
11310	541.343	10396.7	3
11311	541.389	10895.3	2
11313	540.81	11553.2	2
11316	541.784	1903.65	2
11321	542.277	3588.24	3
11327	542.231	2697.16	2
11331	542.302	3750.76	3
11333	542.453	4079.17	2
11341	542.325	5297.43	2
11342	541.805	5485.67	2
11346	542.294	6260.2	2
11351	542.311	7607.32	2
11352	541.791	7853.45	2
11356	541.705	8408.53	2
11357	542.804	8455.85	2
11358	542.287	8636.89	2
11359	542.228	8769.84	2
11360	542.278	8916.07	2
11361	542.114	9295.73	2
11363	541.942	9267.53	2
11364	542.052	9397.94	2
11367	542.308	9667.64	2
11369	542.792	9805.76	2
11371	541.53	10140.9	2
11373	542.409	10590.6	3
11375	542.576	11212.8	2
11380	542.934	1751.93	2
11390	543.6	3313.41	2
11401	543.062	5604.87	2
11403	543.309	5815.52	2
11405	542.822	6124.19	2
11407	543.165	6379.43	2
11411	543.24	6916.06	2
11415	542.846	7327.88	4
11417	542.817	7509.21	2
11418	543.253	7652.24	2
11422	543.114	7794.34	2
11425	543.431	8508.97	4
11428	543.156	8977.85	2
11432	543.544	9763.39	2
11433	543.279	10038.2	3
11434	543.402	10106.8	2
11437	542.796	10689.1	2
11438	543.252	10747.7	2
11441	543.424	11518	3
11454	543.841	3264.69	2
11456	544.3	3548.5	2
11462	544.582	4350.14	2
11463	544.189	5325.67	4
11466	544.409	5039.39	3
11469	543.812	5452.28	2
11473	544.309	6186.75	2
11480	544.021	6816.31	2
11481	544.06	6867.24	2
11484	543.963	7162.54	3
11485	544.591	7214.79	3
11486	544.272	7465.33	2
11487	544.245	7943.56	2
11491	544.2	8180.85	2
11492	543.723	8238.01	2
11495	543.976	8550.03	2
11496	543.765	8591.06	2
11498	544.287	8784.39	2
11500	544.302	9387.17	2
11506	544.501	10836.4	2
11507	543.673	10879.6	2
11508	543.757	11039.1	2
11510	543.623	11297.3	2
11524	545.212	4553.47	5
11528	545.537	3633.68	2
11534	546.088	5179.31	3
11545	544.942	6318.55	2
11550	545.278	7046.34	2
11555	545.444	7851.59	2
11557	544.91	8111.36	2
11568	545.432	9592.18	2
11569	545.538	9848.4	2
11570	546.256	10033.3	5
11572	545.283	10461.9	2
11574	545.294	10644.8	2
11575	544.761	10783.9	2
11578	546.239	1703.6	2
11586	546.446	3266.37	3
11591	547.038	4325.86	4
11593	546.271	3446.97	2
11597	546.048	4260.66	2
11605	545.628	5893.86	2
11607	545.676	7697.43	2
11611	546.295	6811.11	2
11614	546.351	7004.4	2
11616	546.492	7472.44	2
11620	545.8	7676.13	2
11621	545.603	7749.62	3
11622	546.412	8252.01	2
11624	546.56	8401.35	2
11634	546.302	9758.42	3
11635	545.872	9885.74	2
11644	546.316	12211.3	3
11645	546.835	9305.96	2
11646	547.133	2519.06	3
11647	547.536	2073.72	2
11653	547.804	2851.27	2
11660	547.763	3543.73	2
11663	547.295	5158.57	3
11666	547.299	4219.84	3
11668	547.301	5692.82	4
11671	547.546	5497.28	2
11676	547.091	6563.32	6
11678	547.515	6925.78	2
11680	546.58	7304.39	2
11682	547.284	8000.76	5
11684	547.272	8176.19	2
11685	547.366	8227.86	3
11687	547.54	8346.86	2
11688	546.78	8641.71	2
11690	547.558	8798.72	2
11692	547.024	9128.64	2
11693	546.668	9031.98	2
11699	546.611	10756.2	2
11700	546.777	11041.7	2
11701	546.655	11445.9	2
11702	547.293	11636.3	2
11705	548.407	2042.09	2
11706	548.258	2332.56	2
11709	548.244	2791.91	2
11711	548.536	5862.82	5
11713	548.244	3116.35	2
11716	547.837	4039.06	2
11719	547.601	4715.87	2
11721	548.307	4900.28	2
11724	548.066	8342.29	2
11725	548.045	5747.5	4
11729	547.962	6390.66	2
11732	547.558	7841.14	2
11737	548.384	9080.89	2
11738	547.608	9153.11	3
11741	547.967	9507.45	3
11743	548.527	9897.27	2
11745	548.542	10267.3	3
11755	548.731	2677.3	2
11757	549.268	4715.7	3
11758	550.35	3230.79	6
11766	549.026	7426.31	3
11782	548.936	6072.09	2
11783	549.548	6436.42	6
11787	549.954	6558.07	3
11788	549.151	6716.28	3
11789	548.84	6781.71	2
11790	549.297	6902.49	3
11793	548.78	7123.41	2
11794	549.303	7272.74	3
11798	549.128	7894.8	2
11800	548.95	8088.89	2
11801	549.634	8262.57	2
11802	549.532	8324.05	2
11805	549.254	8671.98	2
11806	549.419	8664.36	2
11807	549.131	8944.78	2
11811	549.39	9871.09	2
11813	549.171	10117.6	4
11814	548.782	10180.2	2
11815	548.544	10471.3	3
11817	549.318	11092.9	3
11818	549.85	7823.81	3
11823	550.5	5964.03	10
11829	550.363	3699.83	2
11840	549.923	5605.57	2
11845	550.316	6446.65	2
11848	550.748	6664.33	2
11853	550.052	7516.8	2
11871	549.958	9667.12	2
11874	550.496	6443.83	2
11882	550.942	3442.72	2
11887	551.319	4379.76	2
11892	551.107	3876.82	3
11894	550.961	4898.82	2
11897	550.819	4520.51	2
11898	551.06	4763.93	2
11901	551.564	4980.13	2
11902	551.541	5384.17	3
11906	551.291	5935.74	2
11910	551.283	6410.74	3
11911	550.916	6618.73	2
11915	551.546	6939.35	2
11916	551.359	7292.59	2
11919	550.785	7817.16	3
11921	551.384	8140.68	2
11925	550.832	8605.38	2
11931	550.726	9552.95	3
11933	551.463	9707.94	2
11934	551.664	9944.61	3
11935	551.305	10392.3	2
11936	551.125	10458	2
11938	551.31	11539.8	3
11939	551.702	11631.2	3
11940	551.137	11957.2	2
11948	552.505	2389.43	2
11954	552.513	3420.19	2
11955	552.28	5544.28	2
11963	551.865	4581.56	5
11976	552.781	6701.17	3
11977	552.961	6741.08	3
11980	552.517	7162.97	3
11983	552.271	7686.52	3
11991	552.418	8471.25	4
11992	552.278	9409.83	3
11993	551.949	8879.75	8
11994	551.749	9114.39	2
12001	551.561	10084.1	5
12003	552.784	10493.4	2
12004	552.459	10540.4	2
12006	552.127	10779.8	2
12015	553.096	1744.02	2
12024	553.528	3723.58	2
12027	552.935	4179.28	2
12028	553.427	4722.09	2
12031	553.525	5396.32	2
12044	553.545	7323.78	2
12046	553.453	7368.99	3
12056	553.212	8653.12	2
12058	553.614	9522.85	3
12059	553.493	10325.6	3
12060	553.933	10578.4	4
12062	553.32	11331.1	2
12069	554.618	2550.97	3
12086	554.647	5221.96	2
12091	553.944	5811.09	2
12093	554.515	6187.24	3
12094	553.893	6285.78	2
12100	553.796	6617.45	2
12101	554.049	6803.68	2
12102	554.413	6969.97	2
12107	554.569	7520.98	2
12109	554.293	7834.11	2
12110	554.538	7935.08	2
12113	553.623	8888.54	3
12117	554.314	9299.01	2
12118	553.628	9795.04	2
12127	554.047	12098.9	3
12132	555.044	3331.6	2
12134	555.536	2506.51	2
12138	554.762	3460.42	2
12140	554.978	3558.68	2
12147	554.773	4878.32	3
12150	554.79	5175.04	2
12152	555.794	5419	2
12154	555.281	6097.97	2
12155	554.961	6248.02	2
12156	556.148	6450.77	3
12159	554.909	6730.11	2
12162	554.736	6908.6	2
12181	555.291	10127.8	3
12182	555.605	10206.5	3
12184	554.835	10409.2	2
12187	555.311	11164.1	2
12196	556.005	2079.12	2
12198	556.275	2814.16	3
12212	556.287	4439.6	2
12213	555.783	4398.34	2
12214	556.257	4956.33	3
12220	556.315	5664.88	6
12223	556.641	5768.06	3
12225	556.305	6318.82	2
12228	556.799	6668.41	2
12229	556.535	6690.03	2
12230	556.114	6740.71	2
12232	556.016	7581.97	3
12233	555.848	7611.7	2
12236	556.03	8445.93	2
12238	556.301	8671.48	2
12242	555.769	9355.28	2
12255	555.616	11689.7	2
12275	557.572	4833.54	2
12279	557.041	6210	2
12288	556.785	7281.97	3
12289	557.281	7400.34	3
12291	557.348	8073.06	2
12293	556.791	8203.69	2
12300	557.053	9132.56	2
12304	556.712	9879.58	2
12305	556.674	10112.9	3
12306	557.323	10364.4	2
12307	557.424	10753.3	2
12311	557.575	11187.4	2
12315	558.016	2771.63	3
12319	557.937	2756.5	2
12321	558.238	3036.72	3
12331	559.286	3539.83	4
12332	558.32	4600.64	2
12334	558.319	4681.28	2
12342	558.32	5953.67	3
12345	558.572	5523.02	2
12351	557.805	7063.42	2
12352	557.835	7286.17	2
12354	558.171	7889.8	2
12356	558.542	7186.74	2
12358	558.23	8034.8	2
12359	558.259	8128.91	2
12367	558.634	9657.57	5
12370	557.771	10296.2	2
12372	557.967	10844.2	3
12381	559.302	2207.23	2
12383	559.03	2664.06	3
12386	559.435	2272.4	2
12394	559.541	4851.06	4
12396	558.824	5217.25	2
12398	559.049	5380.23	2
12404	559.215	6693	2
12405	558.79	6744.38	2
12410	559.305	7496.36	2
12414	558.975	7831.26	3
12417	558.631	8508.91	2
12418	559.052	8535.24	2
12419	559.537	8584.27	2
12420	558.634	8688.8	2
12421	559.04	8779.87	2
12424	559.306	9034	2
12426	559.052	9127	2
12431	558.643	9492.59	2
12432	558.951	9790.89	2
12433	559.798	9823.87	2
12435	559.214	10068.3	3
12438	558.827	10504.5	2
12439	558.95	10687.4	3
12442	559.562	11450.4	4
12444	559.308	11965.4	3
12451	560.785	4472.59	2
12453	560.131	4181.03	3
12457	560.483	4313.17	4
12461	560.292	4396.09	2
12463	559.713	4728.68	2
12465	559.792	4827.41	2
12468	560.126	5031.91	2
12471	560.321	5807.5	2
12473	560.289	6282.23	2
12475	560.572	6385.34	2
12477	559.792	6577.28	2
12478	560.197	7164.67	2
12484	559.796	7669.89	4
12489	560.061	8773.73	2
12491	560.104	8989.23	2
12496	560.306	9618.65	2
12497	560.26	9884.16	2
12503	560.531	10924	3
12509	560.869	3544.01	2
12521	560.773	3860.46	2
12522	560.751	3933.37	2
12524	561.279	4143.57	2
12529	561.525	4920.53	2
12533	561.034	5455.31	2
12534	561.46	5529.7	2
12536	561.315	6226.37	3
12543	561.182	7079.59	3
12548	561.428	7944.31	3
12549	561.572	8052.03	4
12559	561.525	9683.98	3
12567	561.322	11879.3	2
12579	562.539	3722.21	2
12584	562.278	4876.05	2
12592	561.799	5247.95	3
12595	562.064	5909.65	2
12597	562.631	6384.64	3
12601	562.307	7229.51	2
12605	561.986	7801.87	2
12608	562.328	8379.28	2
12609	561.881	8494.36	2
12617	561.945	10165.7	3
12621	562.04	10521.1	2
12622	562.275	10568.6	2
12640	563.561	3997.09	2
12648	562.819	5139.81	3
12651	563.306	5580.67	2
12653	563.538	5678.2	2
12659	563.298	6899.66	2
12660	563.802	5205.97	2
12662	562.598	7507.6	2
12664	563.261	7682.23	2
12668	563.612	9158.58	3
12670	562.729	8940.08	8
12672	562.777	9602.17	2
12673	562.731	9840.36	2
12676	562.504	11668.9	2
12681	564.096	3557.22	3
12693	564.416	5201.31	4
12699	564.643	4322.6	4
12706	563.875	5756.67	3
12710	564.088	6637.84	2
12712	564.2	6854.67	2
12715	563.963	7404.58	2
12717	563.608	7723.81	3
12722	563.871	8000.05	2
12724	564.283	8269.43	2
12728	564.593	8747.34	2
12729	564.125	8925.41	2
12730	563.885	9310.23	2
12731	563.973	9555	2
12732	564.275	9780.82	2
12734	563.845	10359.1	2
12737	564.365	10994.3	2
12738	564.325	11705.2	2
12744	564.943	4266.45	3
12746	565.302	3272.89	2
12747	565.63	3391.93	3
12749	565.34	4137.31	2
12755	564.973	5417.46	3
12756	565.544	5453.49	2
12759	565.398	5979.06	2
12762	565.199	6361.62	3
12765	565.319	7611.47	3
12766	565.278	7817.73	2
12768	564.835	8399.02	2
12769	564.81	8449.8	2
12770	565.304	8567.87	2
12772	565.239	8636.86	2
12775	564.919	9079.04	3
12780	565.795	9498.05	2
12782	565.282	10076.5	2
12785	565.196	10537	4
12788	564.637	11479	6
12798	566.005	2259.85	2
12803	566.311	3447.37	2
12806	566.019	5613.35	2
12809	566.434	7579.02	4
12810	566.395	5266.29	3
12820	565.559	6614.65	3
12822	566.462	6654.95	2
12826	566.126	6778.42	2
12829	565.858	7200.32	9
12830	566.163	7474.48	2
12834	566.064	7909.75	2
12835	566.464	8494.56	2
12836	566.305	8655.17	2
12837	565.812	9348.35	3
12838	566.807	6588.16	2
12845	566.28	10018.4	2
12867	566.965	4247.67	3
12869	567.586	4604.96	4
12872	566.764	4580.85	3
12874	566.786	4720.44	3
12875	566.806	5028.37	2
12877	567.535	5483.11	2
12878	567.301	5819.81	2
12884	566.84	6477.65	2
12892	567.303	9810.73	2
12894	567.55	8308.55	2
12895	567.061	8350.94	2
12896	567.292	8406.55	2
12901	567.3	10155.9	2
12902	566.613	10651.7	2
12903	567.537	10221.5	4
12907	567.461	10952.9	2
12931	568.31	4383.39	2
12932	568.281	4418.56	2
12934	568.589	4507.7	2
12942	568.119	5301.47	2
12944	568.271	5814.24	4
12948	567.959	6078.53	2
12950	568.141	6243.25	2
12953	567.795	6840.81	3
12962	567.649	8009.12	2
12966	567.811	8463.26	2
12968	567.606	8797.02	2
12969	568.02	9660.79	19
12970	568.064	9516.59	2
12971	568.269	9803.4	2
12977	568.315	11290.6	3
12978	568.448	11729.4	2
12987	569.647	5650.2	3
12996	569.326	4180.05	2
13003	568.961	7174.96	2
13006	569.574	5466.46	2
13009	568.807	5677.01	2
13014	568.938	7278.84	2
13016	569.045	7366.96	2
13019	568.685	7855.16	2
13023	568.61	8206.94	4
13027	569.305	8665.12	2
13033	569.447	10275.7	3
13034	569.154	10081.6	2
13049	569.756	3944.61	2
13050	570.34	4861.36	3
13051	570.034	4714.9	2
13053	570.264	5110.53	3
13056	570.114	5040.02	3
13065	570.304	6668.98	2
13068	570.265	7077.05	3
13070	570.042	7206.98	2
13072	569.815	7680.96	2
13079	570.18	8368.28	2
13084	569.766	9286.81	2
13086	570.538	10036.3	3
13088	570.042	10623.9	2
13091	570.067	11456	2
13100	570.799	2304.72	3
13105	570.761	3297.17	2
13108	571.302	3821.95	2
13112	571.05	4839.12	2
13116	571.053	4623.57	3
13122	571.514	4762.32	2
13125	570.841	5576.56	2
13126	570.937	5762.74	2
13128	570.953	5918.21	3
13138	571.418	7108.77	2
13142	570.793	7584.94	2
13148	571.62	8556.15	2
13150	571.808	8741.47	2
13151	570.887	8996.75	2
13152	571.34	9199.66	2
13154	571.599	9527.63	2
13155	571.315	9593.23	2
13156	571.481	9875.35	7
13159	571.315	10414.9	2
13160	570.806	10510.1	3
13162	570.808	11569.1	2
13167	572.279	5214.63	2
13171	572.049	3216.99	2
13172	572.262	3519.42	3
13177	572.06	4242.06	2
13178	572.541	4675.39	2
13181	571.794	5177.14	2
13182	571.824	5625.35	2
13184	572.305	6689.98	2
13186	571.831	6860.54	2
13188	571.814	6943.25	2
13189	572.083	7028.88	3
13191	572.571	7918.14	4
13197	572.525	8784.63	2
13200	571.931	10087.5	2
13203	572.312	10356.6	3
13204	572.263	10683.2	3
13205	571.828	10823.9	4
13207	571.883	11504.6	2
13208	572.441	11662.9	3
13220	573.132	5845.72	3
13223	573.47	3786.86	4
13225	573.289	7226.75	3
13228	573.174	4556.16	4
13231	573.301	5114.09	2
13240	573.307	6244.26	2
13241	573.075	6423.85	2
13247	573.331	7260.69	2
13250	573.054	7373.09	2
13254	572.793	8255.84	2
13255	573.017	8416.03	4
13256	573.789	5337.78	2
13260	572.759	8904.37	2
13263	572.956	9143.14	2
13265	572.967	9644.83	2
13266	572.608	9713.11	2
13268	572.971	10113.8	4
13270	572.685	10580.6	2
13273	573.319	11011.3	3
13274	573.654	11182.1	2
13287	574.509	2405.66	2
13292	574.306	2950.22	2
13293	574.236	3075.04	2
13299	574.538	4217.34	2
13302	574.302	4772.76	2
13303	573.799	4965.07	2
13304	574.333	5044.78	3
13310	573.894	5975.29	2
13315	574.547	6129.84	2
13318	573.524	6808.77	3
13333	574.321	8575.55	2
13338	573.982	10229.9	4
13339	574.449	9334.11	2
13340	573.893	9371.74	3
13341	574.55	9448.82	2
13344	574.617	9544.5	2
13345	574.323	9600.2	2
13347	574.059	10035.5	2
13348	573.831	10219.1	3
13354	574.63	11580.4	2
13367	574.758	4154.7	2
13370	575.57	5754.36	4
13371	575.263	5281.04	2
13373	575.215	5374.82	2
13374	575.32	7317.58	4
13381	575.348	6348.04	3
13383	574.972	6634.8	2
13385	575.542	7012.73	2
13386	575.329	7085.93	2
13388	574.951	7171.03	2
13389	575.501	7981.24	6
13390	575.258	7531.74	2
13396	574.843	8253.68	2
13398	575.586	8391.83	3
13401	575.05	8992.72	2
13403	574.895	9082.52	3
13410	575.405	10562.9	3
13413	575.374	11699	2
13421	577.372	4883.81	5
13425	576.021	2751.84	2
13429	576.242	3475.65	2
13436	576.27	4568.61	2
13440	576.052	5317.14	2
13442	576.052	5977.68	2
13448	576.537	6889.16	2
13451	575.972	7299.46	2
13457	576.699	8873.43	3
13459	575.689	9665.84	3
13461	576.327	9773.47	2
13463	575.792	10239.6	2
13472	577.311	2442.42	2
13474	577.283	5143.73	2
13481	577.315	5889.57	3
13483	577.165	7089.78	4
13485	577.54	4562.18	2
13486	576.791	4835.51	2
13487	577.542	4921.32	2
13492	577.095	5182.17	2
13495	577.025	5186.19	2
13504	577.386	6103.96	3
13505	577.324	6387.81	2
13507	577.475	6516.71	4
13514	577.164	7637.64	3
13515	576.813	7739.67	3
13523	577.374	9487.09	2
13527	577.289	10172.6	2
13528	576.662	10497.8	2
13530	577.09	10636.8	2
13537	578.29	3201.27	2
13540	578.292	4742.72	2
13542	578.52	3527.89	2
13543	578.307	4023.7	3
13548	577.782	3993.88	2
13559	578.802	6612.56	2
13562	578.169	6916.12	2
13565	578.697	7761.09	12
13566	578.158	7973.7	2
13569	578.119	8685.39	2
13572	578.209	9084.27	3
13580	578.873	10481.7	2
13582	577.587	10720.1	3
13583	577.843	10849.9	3
13585	578.064	11224.6	2
13586	578.309	11283.8	2
13589	577.938	11533.3	3
13599	579.37	5678.1	8
13610	579.681	5817.87	2
13621	579.321	7886.75	3
13623	579.328	8732.69	2
13625	578.771	9033.54	2
13626	579.635	9171.05	3
13629	578.815	9279.61	2
13634	579.276	9683.03	2
13635	578.835	9917.77	3
13636	578.82	10091	3
13641	579.826	11608.2	2
13642	579.342	12139.1	2
13652	579.785	3728.11	2
13659	580.297	5096.56	2
13660	580.111	5142.66	3
13662	580.519	5270.99	2
13663	580.298	5323.91	2
13670	580.655	5359.26	2
13671	580.096	6372.15	3
13674	580.383	6776.65	2
13678	580.052	7000.79	2
13685	579.822	8191.71	2
13686	579.936	8403.96	2
13687	580.275	8452.96	2
13694	580.45	9372.06	2
13696	580	9587.11	2
13701	579.627	10251	2
13703	580.812	11539.2	2
13704	580.324	11705.9	3
13705	580.486	11790.8	2
13711	581.008	3266.37	2
13717	581.53	3969.82	2
13730	580.657	6261.12	2
13733	580.976	6702.77	2
13734	580.802	6848.22	2
13740	581.624	7327.59	4
13746	580.976	7785.68	2
13748	581.599	8277.67	2
13767	580.973	10619.9	4
13768	581.21	10723.7	3
13771	580.507	11211.7	2
13772	581.351	11394.6	2
13781	581.771	2373.55	2
13789	582.269	3614.91	2
13792	582.726	7914.27	12
13795	582.655	4912.24	2
13800	582.788	5492.26	2
13802	582.281	5887.35	3
13806	582.325	6429.72	2
13810	582.141	7715.88	2
13813	582.325	7922.3	4
13817	581.943	8201.64	2
13818	582.545	8420.13	2
13819	582.311	8514.69	2
13823	582.696	8813.98	2
13824	582.05	8933.99	2
13828	581.605	9456.19	2
13830	582.296	10039.1	3
13832	582.147	10187.4	2
13833	581.84	10341.3	2
13835	582.422	10463.4	4
13836	582.461	10815.5	2
13838	581.8	10963.9	2
13840	582.102	11868.5	2
13843	583.292	3544.76	2
13845	583.001	2501.88	2
13854	583.282	4182.68	2
13860	583.153	5077.13	7
13862	583.554	5268.19	2
13863	583.485	5437.4	2
13865	583.316	5533.03	2
13874	583.752	7181.11	6
13880	582.9	8231	2
13883	583.351	8635.08	2
13890	583.173	9649.92	2
13893	583.521	9969	10
13903	583.77	2967.26	5
13913	584.579	4269.65	2
13920	583.787	5800.58	2
13929	584.307	6713.93	2
13930	584.295	6873.69	2
13936	584.515	7451.47	2
13940	583.919	7997.93	2
13942	584.013	8975.73	2
13947	583.871	9326.27	2
13954	584.304	10389	2
13957	584.081	11215.9	3
13960	584.117	12346.3	2
13967	585.271	2551.17	2
13973	585.808	3373.34	2
13979	585.13	5406.61	4
13981	584.95	5391.65	2
13992	585.463	7813.59	3
13995	585.325	8088.79	2
13998	585.006	8488.7	2
14004	585.53	8954.18	2
14007	584.76	9271.41	2
14008	585.297	9904.16	2
14009	585.295	10055.1	3
14012	585.266	11291.8	2
14017	586.294	4449.31	2
14019	586.317	3779.18	2
14023	586.569	5814.39	3
14031	586.328	4641.94	2
14036	586.314	6784.8	2
14039	585.819	6051.21	2
14048	586.303	6797.55	2
14056	586.654	4992.72	3
14061	585.841	8203.61	2
14065	586	8446.26	3
14068	586.308	9165.73	2
14075	586.332	10130	2
14079	586.361	11616.2	10
14082	587.469	4578.05	3
14090	587.101	3567.66	2
14094	587.816	4022.87	2
14110	587.311	5878.05	2
14111	586.833	5966.6	2
14114	587.062	6149.93	2
14123	587.024	7273	2
14124	587.577	7383.33	2
14126	587.293	7502.87	2
14128	586.825	7852.59	2
14134	587.515	8547.69	3
14135	586.83	8697.26	2
14138	587.311	9358.17	2
14141	587.266	9637.95	2
14142	587.297	10250.1	2
14145	587.467	10390.4	2
14146	586.717	10520.3	2
14155	588.807	1679.57	2
14162	588.549	2649.89	2
14163	588.643	3271.44	3
14164	588.544	2994.83	2
14169	588.058	5266.68	2
14171	588.331	6648.57	2
14174	588.449	5044.61	2
14180	588.317	6596.51	3
14182	588.209	6731.78	3
14183	588.815	6775.25	2
14193	588.543	8282.13	2
14194	587.743	8339.29	3
14195	588.299	8433.34	2
14196	587.829	8488.28	2
14200	588.482	9590.65	2
14203	588.633	9904.33	2
14206	588.482	10338.5	2
14210	587.965	11317.6	2
14211	587.967	11522.2	2
14212	587.659	11869.2	3
14217	589.185	5056.14	4
14223	589.208	4127.35	2
14229	589.016	3947.73	2
14230	589.572	4936.6	6
14238	588.789	5353.18	2
14240	588.84	5734.67	3
14253	589.24	7688.11	2
14255	589	8786.63	4
14259	589.304	9439.38	2
14260	589.288	9692.47	3
14261	589.073	9493.37	2
14263	588.981	9689.68	2
14267	589.333	7881.8	2
14268	588.949	10475.9	2
14273	590.29	2779.38	3
14274	590.008	2572.28	2
14275	589.963	4022.11	2
14279	589.871	4589.39	2
14280	589.7	4559.85	2
14289	589.632	7102.37	2
14292	590.116	5312.67	2
14299	589.803	6255.74	2
14301	589.962	6544.03	3
14302	590.638	5834.31	3
14303	590.303	6916.36	2
14305	590.123	8347.22	3
14306	589.788	7206.49	2
14310	590.641	7513.89	2
14311	589.732	7579.25	4
14313	589.764	7868.77	2
14315	589.633	8054.15	2
14316	589.953	8112.2	2
14317	590.034	8207.25	2
14324	589.994	9623.94	3
14325	589.611	9844.89	2
14326	589.951	10344	2
14328	590.187	11274.4	10
14331	589.984	11754.5	2
14341	590.996	2837.73	2
14348	591.191	5773.53	4
14351	591.553	3620.18	2
14354	591.665	5096.02	3
14356	590.988	5625.63	2
14360	591.305	6339.28	2
14361	591.54	6354.53	2
14368	591.817	7464.2	2
14375	591.29	8721.39	5
14377	591.476	8948.4	2
14380	591.454	9703.26	2
14381	591.584	9478.35	2
14383	590.951	9692.65	2
14384	591.316	9929.91	2
14385	591.263	10078.9	2
14386	591.313	10178.6	3
14390	590.822	10717.6	4
14395	591.324	12053.1	2
14397	591.775	3694.75	2
14398	592.291	4849.15	2
14400	592.292	3457.05	3
14405	592.338	4899.73	2
14410	592.345	5470.32	2
14412	592.77	7584.02	24
14414	592.417	5923.48	3
14415	592.299	6079.02	2
14418	591.729	6457.69	2
14425	591.812	7396.47	4
14430	592.317	7810.81	3
14432	591.609	7950.51	2
14439	592.311	8541.03	2
14443	592.304	9547.74	2
14452	592.893	5710.16	3
14457	592.878	4219.09	3
14458	593.306	4022.35	2
14465	593.469	6820.58	4
14467	592.762	7824.23	2
14469	592.853	6161.11	3
14472	593.675	5196.42	3
14473	592.82	6962.78	3
14485	592.785	8791.98	2
14486	593.446	8978.42	2
14496	592.959	11767.9	2
14502	593.776	5499.9	6
14507	594.531	2809.7	2
14515	593.817	4968.74	2
14523	593.849	6393.49	2
14524	594.321	6395.09	2
14525	594.035	6599.04	4
14533	594.995	6179.41	3
14536	593.668	8040.6	2
14540	594.428	8236.91	2
14544	594.382	9519.85	3
14547	594.059	9761.78	2
14548	593.936	9827.56	2
14553	594.336	10726.6	4
14554	594.313	10906.8	2
14556	594.397	11638.9	2
14565	595.386	3877.26	3
14567	595.046	3008.29	2
14570	594.804	4149.3	2
14572	595.56	4330.56	2
14580	595.156	7011.54	2
14581	594.974	5697.01	2
14583	595.197	5919.84	6
14584	595.545	6059.31	2
14592	595.282	7113.35	2
14596	595.817	7293.85	2
14604	594.989	7736.92	5
14610	595.177	8477.71	3
14611	594.664	8913.64	9
14612	595.307	9100.84	2
14614	595.636	9192.68	3
14616	594.985	9780.46	3
14617	595.282	10093.9	2
14618	594.947	10175.9	2
14624	595.351	11091.5	6
14625	594.826	11607.7	7
14627	595.427	11742.5	2
14632	595.953	2267.02	2
14639	596.282	3463.39	2
14643	595.79	3970.96	3
14647	596.127	5064.97	4
14648	596.398	5202.77	2
14651	596.278	5440.33	2
14652	595.81	5535.38	2
14655	596.561	5914.04	2
14660	596.341	7162.46	2
14661	596.039	7539.53	2
14663	596.323	7917.9	2
14665	595.97	8570.36	2
14667	595.807	8666.86	2
14673	596.23	9631.39	5
14675	596.312	10230.2	2
14676	595.833	10409.8	2
14684	595.822	11979.2	4
14688	596.355	12131.2	2
14699	597.458	2292.35	2
14703	596.94	3349.05	2
14705	596.767	3856.23	2
14706	597.335	4035.62	2
14712	597.03	6433.06	2
14715	596.806	6093.39	2
14717	596.819	6268.56	2
14719	597.816	6861.63	22
14723	597.329	7578.62	2
14724	597.6	7637.5	2
14725	597.353	7718.36	2
14730	597.812	8261.93	2
14731	597.297	8373.15	2
14732	597.325	8525.2	5
14733	597.072	8669.76	2
14735	596.596	8971.3	2
14740	597.312	9803.65	2
14741	597.075	9901.48	3
14746	597.574	10719.3	2
14756	598.49	2805.24	2
14758	598.016	4074.39	2
14765	598.48	5201.42	6
14767	598.811	4331.6	2
14768	597.889	6880.85	3
14774	598.591	5747.22	2
14780	597.792	7038.37	3
14781	597.79	7459.18	2
14783	598.314	7861.93	2
14784	597.814	8173.77	2
14787	598.061	8787.52	2
14788	598.306	8853.41	2
14789	598.323	9056.6	2
14790	598.675	9232.48	2
14792	597.828	9497.95	2
14795	598.853	9851.95	2
14798	598.304	10433.2	2
14799	598.625	10590.4	2
14802	597.832	11053.2	14
14816	599.614	4065.95	2
14818	599.6	4967.78	2
14819	599.058	4994.59	2
14824	599.532	6314.74	2
14827	598.96	8029.71	2
14833	598.616	8715.9	3
14835	598.621	9309.12	3
14836	599.399	9363.82	2
14840	598.635	10049.3	2
14841	599.478	10026.6	5
14848	599.463	11298.2	2
14852	599.306	11571.4	2
14853	599.132	11646	2
14854	598.974	11717.2	2
14855	599.431	11866.1	4
14858	600.332	4344.67	2
14860	600.277	2303.59	2
14866	600.36	5156.87	2
14871	600.477	4145.87	3
14878	599.813	6592.41	2
14881	600.354	7193.21	5
14882	600.059	7342.99	2
14883	600.059	7362.33	2
14884	600.586	7419.29	2
14885	600.532	7485.62	2
14886	600.043	7563.88	2
14893	599.824	8625.83	2
14901	600.315	9494.65	2
14902	600.63	9566.24	2
14905	600.445	9886.09	2
14916	601.295	6821.43	2
14918	600.797	3106.12	2
14923	601.515	4106.07	2
14925	601.439	4461.73	2
14928	601.367	4928.92	2
14937	600.766	6272.92	2
14945	601.32	7660.85	2
14946	601.147	7716.6	2
14951	601.302	8209.58	2
14962	601.313	10328.9	9
14963	601.174	10191.9	2
14967	601.022	12035.9	2
14968	600.84	12090.8	2
14971	601.148	12373.3	2
14973	601.938	1957.12	2
14974	601.975	3244.3	2
14975	602.296	2103.84	2
14980	603.197	4695.57	4
14984	602.643	3727.9	3
14985	602.3	4210.74	2
14988	602.299	4837.07	4
14989	602.334	4919.46	2
14990	603.097	5819.06	4
14996	602.107	6215.66	2
15002	602.589	6502.28	2
15003	602.589	6569.01	2
15006	602.323	6771.88	2
15012	602.341	7522.82	3
15014	601.853	7798.04	2
15017	601.853	8032.02	2
15019	602.324	8584.04	2
15020	601.74	8750.13	2
15027	601.832	9676.07	2
15030	602.228	10369.8	2
15042	603.31	4452.79	2
15044	602.767	3373.95	2
15045	603.071	3892.53	2
15049	603.174	7041.12	9
15058	603.33	6426.07	2
15059	603.554	6512.4	2
15063	602.828	7687.16	2
15066	603.296	7211.03	3
15068	603.656	7626.93	3
15073	602.816	8148.78	2
15078	603.358	8386.09	3
15079	603.656	8501.21	2
15082	602.91	9090.31	2
15086	603.063	9457.57	2
15088	602.807	9771.62	2
15090	603.816	10018.5	2
15092	603.326	10812.3	3
15093	602.819	10635.6	2
15096	602.844	11199.1	3
15105	604.133	2600.73	2
15111	604.326	6727.87	2
15115	603.804	4780.25	2
15117	605.171	5874.64	10
15119	603.756	5294.6	2
15122	603.831	5612.73	2
15125	603.833	6047.57	2
15130	604.251	7421.63	5
15131	604.177	7668.24	3
15133	604.568	7986.52	2
15137	604.809	5664.05	2
15141	603.939	8735.03	3
15143	604.332	9204.74	2
15148	604.365	9526.38	3
15150	603.836	9987.29	2
15151	603.933	10093	4
15152	604.079	10186	2
15158	603.978	11072.6	2
15161	603.828	11428.6	2
15163	604.313	11603.8	4
15164	604.509	11637.4	3
15165	604.057	11752	2
15178	604.638	3322.42	2
15185	604.838	5364.37	6
15188	605.266	4712.69	2
15189	605.474	5072.54	3
15191	605.598	5767	2
15195	605.169	6624.73	2
15198	605.315	6876.6	2
15199	605.114	6931.87	2
15201	605.401	7738.07	3
15206	604.913	8739.16	2
15208	605.316	8947.18	2
15209	605.24	9363.91	2
15211	604.938	9819.76	2
15212	605.635	9858.73	3
15229	606.31	3448.03	2
15241	606.81	3961.94	2
15246	605.652	5982.29	2
15249	606.085	6530.98	2
15251	606.064	6742.3	2
15256	605.98	7185.61	2
15258	605.848	7899.79	2
15271	605.984	9263.06	2
15279	606.045	10096.7	2
15281	605.821	10876.9	3
15283	605.82	11197.7	2
15285	606.05	11446.4	2
15287	605.875	11992.7	2
15290	607.359	5470.95	5
15295	607.322	4430.98	2
15296	607.618	3964.34	2
15300	606.797	5547.34	2
15302	606.817	5838.61	2
15305	607.327	6169.42	2
15310	607.272	7033.41	2
15311	607.314	7440.55	2
15312	607.609	7601.79	6
15313	607.504	7589.66	2
15314	607.278	6140.72	3
15315	607.498	7824.4	3
15318	607.317	8254.18	2
15324	607.567	9035.92	2
15325	607.641	7312.11	2
15330	607.57	9984.78	2
15336	607.682	10791.4	3
15339	607.301	11316.4	2
15341	607.368	11866	2
15344	608.351	4815.95	3
15348	607.768	2416.23	3
15351	607.762	2970.61	2
15354	608.05	3245.66	2
15361	607.859	4604.34	2
15362	607.855	4685.55	2
15368	607.848	5190.08	2
15372	608.326	6520.81	3
15374	608.327	5760.54	2
15377	607.8	5903.81	2
15381	608.332	6415.26	2
15386	608.359	7288.89	4
15387	607.803	7389.41	2
15388	608.55	7989.91	3
15395	608.317	8527.83	2
15406	607.626	10521.9	2
15407	608.344	10690.6	3
15414	609.634	4127.51	11
15421	609.978	3667.43	3
15424	609.32	4747.84	2
15425	609.468	6724.53	7
15427	608.941	5073.97	2
15431	609.557	5985	2
15432	609.574	6198.23	2
15436	609.661	6529.89	2
15437	609.332	6688.61	2
15443	609.07	7704.3	2
15446	609.603	8128.54	3
15447	609.646	8166.42	2
15451	608.895	8612.99	2
15452	609.262	8697.09	4
15455	609.564	9442.4	2
15459	610.186	8895.99	9
15462	609.144	10874.5	2
15465	609.52	11017.4	2
15473	610.47	8295.57	4
15474	609.949	4357.26	3
15475	610.537	4915.47	3
15480	610.15	6066.8	3
15484	610	6638.73	2
15486	610.61	6728.17	2
15488	609.846	7156.18	2
15489	610.321	7298.53	2
15490	610.348	7367.35	2
15492	609.832	7643.71	2
15493	610.544	8183.81	2
15495	610.409	8407.43	3
15497	609.828	8816.28	3
15502	610.146	9095.21	2
15504	610.805	9647.62	2
15506	609.859	10075	2
15508	610.449	10685.4	5
15513	610.828	11154.6	4
15515	610.463	11691.7	3
15517	611.264	4959.89	7
15522	611.307	3592.87	3
15529	611.467	5252.9	3
15531	611.318	5405.09	2
15535	610.922	5911.93	3
15538	611.32	6916.62	6
15539	611.321	7006.85	2
15540	611.314	7058.87	2
15543	611.171	7371.16	2
15547	610.634	7843.53	2
15553	611.362	8939.89	5
15555	610.713	9175.05	2
15557	611.189	9561.3	3
15560	610.656	10423.3	3
15561	610.825	10524.7	2
15562	610.803	10805.2	2
15563	611.313	10871.9	2
15572	611.81	2904.32	2
15581	612.328	5333.2	2
15583	612.137	7292.93	2
15584	612.622	3600.94	2
15586	612.323	5696.01	3
15589	612.461	6306.93	2
15596	611.808	7954.85	2
15597	612.355	8011.67	2
15604	612.331	9135.99	2
15606	611.96	9905.27	3
15607	612.44	10073.6	3
15608	612.198	10252.2	4
15625	613.252	4909.69	3
15630	612.817	4431.06	7
15632	613.31	4686.91	2
15638	612.876	6579.14	2
15643	613.319	7222.78	2
15648	612.983	7477.28	2
15655	612.952	8215.24	6
15656	613.151	8459.85	2
15659	613.331	8672.91	2
15661	613.356	8759.17	2
15664	613.379	9328.05	2
15671	612.737	11294.7	2
15675	613.367	11861.4	2
15679	614.18	3882.76	4
15686	614.581	5733.82	3
15692	613.808	5285.2	2
15697	614.033	5853.61	2
15706	614.317	7109.62	2
15711	613.83	7645.11	2
15714	614.142	7859.05	2
15716	614.001	8085.81	2
15717	614.657	7571.74	3
15721	614.726	9103.46	3
15724	614.13	9360.85	2
15728	613.7	9585.71	2
15730	614.074	9761.75	2
15735	614.291	10368.1	2
15739	614.861	10905.6	8
15746	615.148	3807.42	3
15754	614.623	5009.45	3
15757	614.961	5920.87	2
15765	615.353	6939.58	2
15770	615.466	8024.07	2
15771	615.102	8107.99	2
15773	615.323	8304.58	2
15775	614.663	8435.49	3
15782	615.425	6177.25	2
15787	615.273	10605.1	4
15798	616.303	4950.34	2
15800	615.779	4377.77	3
15801	615.896	4732.89	9
15802	615.914	4954.67	4
15808	616.14	5486.91	2
15812	616.484	6451.31	2
15813	616.271	6503.46	2
15814	616.157	6637.08	2
15818	616.291	7050.48	2
15819	616.557	7789.47	3
15824	616.294	7612.72	2
15827	616.667	8136.38	3
15837	616.499	9733.97	2
15841	615.842	10735.9	3
15843	616.586	11133.9	2
15844	616.161	11200.3	2
15846	616.402	11373.1	2
15855	617.305	4006.15	4
15861	617.416	5170.86	4
15869	616.806	4955.03	2
15883	617.036	6893.27	3
15887	617.793	7405.37	2
15888	616.653	7683.43	2
15891	616.551	8251.07	2
15897	616.805	8927.29	2
15901	616.594	9284.27	2
15902	617.062	9358.84	3
15903	617.059	9423.44	2
15906	617.637	9691.19	2
15907	616.854	9835.58	2
15910	616.575	11599.6	2
15911	617.76	11789.6	3
15912	617.555	11848.3	4
15915	617.365	12083	3
15916	618.328	5073.12	2
15921	618.826	3015.33	2
15922	618.32	4207.23	3
15925	619.602	4750.33	5
15934	618.829	5704.55	2
15936	617.831	6088.91	2
15941	618	6960.8	3
15947	618.804	7412.01	2
15950	618.329	8082.58	2
15966	618.568	10366.2	2
15968	618.056	10524.2	2
15970	618.552	10717.8	2
15974	618.482	11146.9	2
15975	618.343	11222.9	2
15977	618.134	11296.2	2
15978	617.98	11493	5
15979	618.046	11709.5	3
15987	619.747	7085.49	5
15991	619.461	3064.23	3
15994	619.118	3701.07	4
15999	619.455	5519.77	4
16001	619.587	5230.49	2
16006	619.289	6312.48	3
16007	618.856	6434.82	2
16009	619.269	6563.92	2
16014	619.561	7319.03	2
16020	619.316	7848.32	2
16021	619.547	7223.34	5
16023	619.083	8276.53	3
16028	618.95	9036.32	4
16030	619.307	9310.76	2
16031	619.447	9537.8	2
16033	619.278	9791.65	2
16036	618.683	10102.9	2
16038	618.845	10244.2	3
16042	619.169	10960.3	2
16044	618.676	11064.1	2
16053	619.58	12030	2
16056	621.179	4998.94	4
16057	619.786	3639.15	2
16060	620.583	4210.93	2
16062	619.882	4855.45	7
16063	619.813	4711.13	2
16065	619.831	5290.78	2
16067	620.327	5403.77	2
16069	620.771	7376.35	3
16070	619.797	5882.2	2
16071	619.817	6654.52	2
16076	620.359	7786.81	2
16078	620.312	7912.88	2
16079	619.807	8704.14	2
16090	620.119	10507.4	4
16104	621.533	1709.46	2
16107	620.767	2748.13	2
16112	621.04	3178.93	2
16116	621.147	5991.95	2
16118	621.753	6290.79	7
16129	620.816	8130.95	2
16136	621.794	8377.34	2
16137	621.622	8495.15	4
16144	620.819	8810.06	2
16145	621.486	9047.08	2
16147	621.345	9574.03	2
16149	621.855	10025.3	2
16151	621.484	10159.3	2
16153	621.09	10371.4	2
16156	620.798	10809.9	2
16159	621.154	11259.9	3
16162	620.675	11540	4
16164	621.367	12258.6	2
16167	622.05	2468.55	2
16174	622.227	5794.24	5
16175	622.829	3219.01	2
16177	622.32	6353.25	2
16182	622.306	6061.03	2
16185	622.003	6628.94	2
16188	621.8	7022.28	2
16201	622.002	8900.53	2
16205	622.349	9160.8	2
16208	622.341	10195.1	2
16209	622.321	10247.2	2
16211	621.649	10706.5	2
16213	622.365	10972.4	3
16215	621.66	11419.5	2
16223	622.791	2501.84	2
16227	622.761	4959.61	3
16229	623.28	3353.98	3
16235	623.602	4979.98	2
16247	623.579	6704.75	2
16248	623.825	6780.08	2
16249	622.833	6823.92	2
16250	623.719	7272.3	5
16252	623.153	6297.88	3
16253	624.486	7570.15	16
16255	623.319	8037.95	2
16259	623.222	8510.97	3
16263	623.656	8980.4	2
16266	623.069	9315.18	2
16268	623.248	9431.84	3
16269	623.304	9509.42	2
16270	623.471	9618.79	2
16271	623.323	9685.51	2
16272	623.304	9791.22	4
16275	623.358	10093.9	2
16277	623.532	10532.1	2
16286	623.353	11903.9	2
16287	624.146	6322.57	3
16309	624.313	6304.38	2
16311	624.579	6661.68	2
16313	624.449	7007.02	4
16314	624.807	7051.5	2
16317	624.352	8318.42	2
16320	624.311	8797.92	2
16322	623.983	10759.4	4
16323	624.087	9461.28	2
16327	624.577	11765.5	2
16328	624.323	11750	2
16331	625.311	2850.21	2
16338	624.812	3765.2	2
16339	625.427	3826.69	2
16348	625.145	6780.86	2
16349	625.555	5886.8	2
16350	625.301	6024.14	2
16361	625.401	7243.25	2
16368	625.463	8699.23	2
16371	625.203	8950.05	2
16373	624.707	9239.14	2
16377	625.649	10234.4	2
16378	625.559	10386.4	5
16381	624.67	10642.6	3
16385	625.304	11986.5	2
16390	625.786	2422.81	2
16399	626.079	4457.03	2
16400	626.586	5092.69	4
16403	625.799	5387.06	2
16406	625.99	5778.05	2
16407	626.288	5850.54	2
16417	625.824	7194.53	2
16418	626.587	7362.03	2
16427	626.151	8993.96	2
16430	626.654	9117.18	5
16431	626.109	9934.19	3
16435	625.67	11232.3	2
16436	626.575	11253.4	2
16446	627.059	2504.58	2
16452	627.328	5350.18	4
16456	627.29	6343.51	2
16457	627.383	8886.04	2
16458	627.064	6981.15	2
16459	627.551	4956.03	2
16466	627.595	8071.21	2
16468	626.843	8294.82	2
16469	627.313	8345.93	2
16472	626.947	8507.48	2
16476	626.579	8764.85	3
16479	626.64	9432.71	5
16481	627.341	9754.71	2
16483	627.997	9971.16	3
16484	626.982	10054.5	3
16485	627.332	10166.2	2
16488	627.348	10759.6	4
16489	627.671	10795.9	3
16491	627.025	11327.8	2
16499	628.091	3309.88	2
16501	627.795	3859.01	2
16505	627.92	4869.34	2
16506	628.507	7106.38	4
16508	627.76	6092.01	2
16509	628.558	5572.31	2
16510	628.091	6287.25	2
16511	628.36	6459.45	3
16512	628.589	6565.03	4
16516	628.579	7191.46	2
16522	627.803	8440.08	2
16530	627.796	9622.6	2
16535	628.354	10477.1	2
16538	628.289	11517	8
16554	629.066	4494.47	2
16555	629.034	4891.45	2
16559	628.841	7275.55	3
16562	628.636	7636.05	2
16563	628.793	7989.09	2
16568	628.992	8388.22	2
16571	628.66	8829.85	2
16573	628.863	8998.67	2
16574	629.593	9051.24	2
16576	629.347	9267.37	2
16577	629.456	9322.6	2
16582	628.877	10054	2
16584	628.628	10391.1	2
16585	629.037	10568.1	3
16586	629.239	11285.2	6
16589	628.961	11150.8	2
16591	629.435	11333.8	2
16609	630.477	3452.88	2
16615	630.459	5015.95	4
16617	630.363	5336.82	2
16619	630.528	4523.62	2
16620	630.528	7713.31	5
16621	630.089	5464.89	2
16622	629.885	5759.88	13
16624	630.093	6330.56	2
16625	630.632	5660.22	3
16626	629.999	6739.29	3
16630	630.071	6954.1	4
16631	630.11	7083.8	3
16634	630.328	7441.72	2
16636	629.817	7545.02	2
16649	629.658	9362.47	2
16653	631.046	8168.26	3
16654	630.311	10345.3	2
16663	631.285	2366.25	4
16670	631.35	4982.02	3
16674	631.392	5139.3	2
16680	630.827	7736.45	2
16684	630.974	7171.39	2
16689	631.343	8031	4
16690	630.822	8514.6	2
16697	631.495	8200.42	2
16699	631.257	9719.69	2
16700	631.154	9847.06	4
16701	631.293	9932.06	2
16702	630.864	9975.82	2
16705	630.848	10353.4	2
16711	631.157	11096.5	2
16712	630.992	11236	2
16715	631.365	12325.4	2
16725	632.441	3185.6	2
16726	631.795	3792.87	2
16743	632.839	6430.9	2
16751	632.062	7846.59	2
16752	631.808	7929.08	2
16753	631.784	8233.35	2
16754	632.225	8418.76	3
16757	632.326	8758.65	2
16763	632.359	9383.07	2
16766	631.648	9543.85	4
16781	633.329	3447.29	2
16786	634.144	3544.11	3
16787	633.565	4479.53	3
16788	633.323	4566.84	2
16791	633.211	6456.05	7
16795	633.782	5360.84	2
16807	633.597	6830.86	2
16808	633.536	6938.12	2
16812	633.39	4915.65	2
16814	633.21	7399.25	2
16815	633.327	7488.72	2
16820	632.899	7852.81	2
16830	633.352	9193.11	2
16832	633.874	9747.94	2
16833	633.187	9842.4	2
16842	633.402	11209.4	4
16843	633.152	11406.4	3
16844	633.322	11633.5	2
16845	633.307	11835.6	2
16851	633.798	2080.32	2
16857	634.354	3761.6	2
16859	634.149	6033.38	3
16864	634.382	6480.06	3
16865	634.321	7293.27	2
16866	634.604	5327.53	2
16867	634.543	5680.86	3
16870	634.826	6493.86	7
16872	634.342	6288.75	2
16873	634.088	7389.51	2
16875	634.32	6622.57	2
16877	634.347	6803.15	2
16878	634.557	6287.07	2
16881	634.372	7323.49	2
16883	634.397	7768.3	2
16886	634.317	8162.58	2
16887	634.323	8485.84	3
16891	634.144	8553.26	2
16896	633.65	9327.53	2
16903	634.566	9480.64	3
16910	634.195	11515.4	2
16911	634.642	11636.9	2
16918	635.316	3719.92	2
16926	635.33	8137.58	3
16934	636.163	7562.44	3
16935	635.506	6667.58	2
16938	635.632	7200.38	2
16939	634.834	7387.19	2
16945	634.68	10463.4	2
16947	635.58	8852.38	2
16948	635.112	8913.38	2
16950	635.714	9150.68	2
16951	636.171	7635.11	3
16955	634.917	10361.5	2
16957	635.324	10543.1	3
16958	634.679	10759.1	2
16959	634.803	10824.2	2
16960	635.693	11065.7	2
16965	635.335	12051	2
16974	636.545	3864.32	2
16977	635.691	4892.82	2
16978	636.612	3655.76	2
16989	635.973	7109.82	2
16997	636.331	8343.23	2
17003	635.841	9412.3	2
17005	636.375	9670.7	3
17006	635.626	9821.56	2
17012	635.805	10261.9	2
17015	636.6	10885.6	2
17027	637.28	3157.01	2
17030	637.093	6135.71	3
17033	637.318	6648.97	4
17034	637.307	5491.12	2
17040	637.191	6187.18	2
17042	636.833	6300.14	2
17044	638.14	6718	4
17045	637.318	6960.02	2
17050	636.801	7812.24	2
17051	637.319	7947.75	2
17052	637.501	8162.33	2
17054	637.688	8538.77	2
17055	637.243	8740.34	6
17056	637.486	7518	3
17059	637.335	9835.91	7
17065	636.831	10120.9	2
17070	638.114	10347.9	3
17081	637.379	11749	2
17088	638.493	2689.52	3
17093	637.81	3805.83	2
17100	638.047	4903.47	2
17101	637.802	7252.99	2
17103	637.809	5415.06	2
17110	638.662	6384.17	3
17111	638.825	6458.62	2
17113	638.966	6608	3
17118	637.848	7064.88	2
17124	638.493	7575.38	3
17126	637.986	9321.39	2
17130	637.854	8411.26	2
17131	637.667	8611.7	3
17132	637.838	8884.11	2
17134	638.048	9588.24	2
17136	638.333	10074.2	3
17141	638.387	10487.3	2
17143	638.558	10718	2
17147	639.31	1921.2	2
17148	639.366	5076.74	5
17149	639.551	2192.85	2
17168	638.976	7252.87	2
17169	639.348	7315.11	2
17174	639.589	7813.6	2
17178	639.316	8172.93	2
17180	639.293	8295.13	2
17184	638.828	9143.67	2
17185	638.985	9204.7	2
17187	639.116	9600.75	5
17188	639.292	9469.71	3
17189	639.175	9664.35	3
17190	639.099	9742.3	3
17191	639.154	9808.17	2
17195	639.144	11058.4	2
17196	638.645	11118.5	3
17197	638.843	11295.4	7
17201	638.826	12144.4	2
17204	639.784	2711.67	2
17206	640.275	2968.78	2
17207	640.07	3263	2
17212	640.592	4576.73	2
17215	640.494	5830.97	2
17216	640.09	5242.09	2
17222	639.806	6190.97	2
17225	639.908	7647.1	2
17240	640.319	8806.11	2
17242	640.349	9044.12	2
17249	640.785	10105.3	3
17257	641.879	9896.17	22
17266	641.565	4701.6	2
17267	640.686	4698.32	2
17273	640.637	5567.87	2
17275	640.657	5666.89	2
17276	641.331	5804.05	2
17277	641.307	5898.63	2
17278	640.809	6134.24	2
17286	641.353	7512.32	3
17291	641.208	8110.95	3
17294	640.841	8944.71	2
17295	641.734	10034.5	3
17298	641.787	9749.56	3
17303	641.566	10274.3	2
17307	641.458	10795.5	5
17319	642.562	5043.85	2
17322	642.063	6217.54	5
17326	642.529	6095.17	3
17332	642.388	7136.71	3
17343	642.346	8295.26	2
17349	642.361	9608.59	4
17353	642.602	10684.9	2
17354	641.813	11326.3	2
17355	642.373	11924	2
17365	642.874	5697.21	5
17367	642.873	4334.01	2
17369	642.781	4906.42	2
17374	643.067	5839.22	2
17376	643.035	6497.21	3
17383	643.076	6973.56	2
17398	643.322	8759.11	2
17405	643.498	9888.39	2
17413	643.884	5831.22	5
17418	643.846	4326.71	2
17419	644.377	4416.1	2
17424	644.491	6413.35	6
17426	644.351	6950.1	3
17427	643.864	7219.59	2
17430	644.448	7516.2	2
17435	644.45	7908.26	7
17437	644.593	8135.01	2
17440	644.48	8441.41	3
17442	644.349	8717.38	2
17444	644.349	8878.92	2
17454	643.831	9719.76	2
17456	644.824	10151.5	4
17462	643.65	11054	2
17469	644.982	4266.96	2
17472	645.303	2715.52	2
17478	645.316	5533.1	2
17483	644.95	6796.94	4
17484	644.995	6833.01	2
17486	644.832	5583.5	2
17488	645.57	5917.01	2
17490	645.081	6431.67	2
17493	645.336	7299.36	2
17497	645.497	8197.55	2
17501	644.937	9627.43	2
17503	644.613	9416.27	2
17506	645.434	10018.2	2
17508	645.309	10057.5	2
17510	645.103	10360.7	2
17511	645.088	10550.1	2
17517	646.001	9960.48	3
17518	645.628	11348.1	3
17523	646.071	2385.88	2
17529	646.326	5352.73	2
17530	646.334	4072.4	2
17536	646.337	5713.77	5
17539	646.16	7881.01	3
17543	645.832	6599.05	2
17545	645.839	6840.46	2
17546	646.65	5815.94	2
17548	646.05	7410.15	2
17550	646.081	7672.23	2
17555	646.377	8561.06	2
17557	646.888	5352.75	5
17564	645.821	9317.34	3
17565	646.318	5823.57	2
17566	645.838	9583.91	2
17568	645.851	9954.1	2
17572	646.312	10204.2	2
17576	645.929	11626.5	2
17580	646.818	1805.79	2
17582	646.793	2498.66	2
17587	647.323	4618.23	2
17590	647.574	5209.6	2
17594	647.838	6063.79	2
17599	647.504	6383.32	2
17601	647.141	6905.76	2
17602	646.974	6971.37	2
17604	647.304	8697.58	5
17605	646.824	7208.56	2
17606	647.152	7496.7	2
17613	647.484	8194.47	2
17617	646.593	8776.55	2
17621	646.834	9681.51	2
17625	646.884	10089.8	2
17627	647.844	10650.8	3
17628	647.664	10708.8	4
17629	647.422	10787.8	2
17632	646.841	10996.8	2
17635	647.451	11162.1	2
17637	646.843	11242.6	2
17644	648.322	2045.07	2
17656	648.571	4369.13	4
17658	647.818	4691.02	2
17661	648.06	5363.08	4
17664	648.072	5427.64	2
17671	648.297	7156.68	2
17673	648.583	4797.65	2
17674	647.807	7576.07	2
17676	647.823	7858.45	2
17677	648.334	7973.37	2
17678	648.456	8246.81	2
17684	647.885	9149.62	3
17686	648.331	9450.81	2
17687	648.177	9617.7	4
17688	648.431	9189.55	3
17689	648.317	9849.65	3
17692	648.54	10249.9	3
17706	649.337	4859.76	3
17711	649.561	5299.02	2
17712	649.058	5517.89	2
17716	649.319	6913.1	2
17721	649.58	7810.05	3
17725	649.585	8302.65	3
17739	648.816	10433.8	2
17743	648.641	11329.7	2
17744	649.368	11922.4	2
17747	649.783	2346.82	2
17753	650.634	4861.67	3
17755	650.097	5067.94	2
17756	650.078	5414.89	2
17768	650.47	6976.39	3
17769	649.641	7357.51	2
17773	650.722	7406.2	2
17778	650.38	8791.12	3
17781	649.829	8993.79	2
17783	650.098	9288.12	3
17785	649.848	9712.38	2
17787	650.512	10157.3	2
17790	650.618	10578.5	2
17791	649.668	10896.9	4
17796	650.337	11631.5	6
17798	651.085	1809.13	2
17802	651.25	3205.76	2
17807	651.22	5174.93	6
17808	650.831	4399.8	3
17810	651.383	4650.25	4
17815	652.345	5752.02	4
17816	651.578	5932.95	2
17818	651.37	6670.03	2
17819	651.359	6878.92	3
17822	650.813	7070.53	2
17823	651.836	7802.85	2
17825	651.201	8221.13	3
17827	651.352	8611.53	4
17831	650.694	9460.14	2
17833	650.823	9567.54	2
17835	651.538	9893.34	2
17843	652.306	2161.7	2
17850	652.31	3931.72	2
17851	652.06	6087.44	3
17852	651.722	4630.73	2
17853	652.093	5481.48	2
17864	651.999	6216.97	2
17874	652.345	7316.73	3
17875	651.84	7599.27	5
17876	652.333	7954.98	3
17878	651.983	8051.41	2
17885	652.322	8800.35	2
17886	652.304	8991.33	6
17887	652.338	9180.32	3
17889	652.335	9381.09	2
17893	651.747	9826.71	2
17900	652.065	10721	2
17905	652.341	11204.5	2
17906	651.967	11300.7	3
17907	652.194	11841.2	3
17917	652.862	2959.42	2
17919	653.307	6661.59	2
17922	653.294	6830.83	4
17923	653.578	3892.24	2
17925	653.106	5736.9	2
17927	653.571	5464.78	2
17929	652.843	6120.55	2
17930	653.061	6358.2	2
17939	652.794	7883.37	2
17941	652.963	8515.98	2
17943	653.075	8757.12	2
17944	653.829	8996.82	2
17948	653.318	9504.95	2
17949	654.246	9757.24	10
17954	654.27	10814.4	9
17955	653.33	10651.7	2
17956	653.489	11091.7	2
17961	653.889	3309.1	2
17964	654.334	6280.41	2
17965	654.329	3990.78	2
17967	654.576	4237.79	2
17986	653.803	7255.41	2
17987	654.577	7600.06	2
17994	654.345	9357.65	2
17995	654.308	9435.86	2
17996	654.308	9881.12	2
17997	654.571	9947.32	2
18000	654.157	10756.3	5
18001	654.336	10379.2	2
18004	654.295	11460.1	3
18010	655.448	3738.91	2
18028	655.69	7765.66	3
18031	654.994	8100.18	2
18035	654.749	8426.81	2
18036	654.924	8496.35	2
18038	656.147	6421.59	3
18049	654.805	11653.8	2
18057	655.789	3137.01	3
18061	656.293	4843.59	2
18064	656.304	5282.5	2
18066	655.834	6184.43	2
18067	655.825	6246.27	2
18071	656.423	6876.37	2
18072	656.431	6942.16	2
18073	656.083	7080.21	2
18075	656.316	7335.48	2
18080	656.344	7876.95	2
18083	656.556	8205.33	2
18084	656.306	8269.7	2
18086	656.29	8854.62	5
18090	656.717	9121.66	2
18097	655.949	10649	2
18100	656.33	11136.8	5
18101	656.496	11841.9	2
18104	656.332	11590.5	2
18112	657.405	3285.37	4
18113	657.138	3461.52	3
18117	657.139	6779.06	2
18120	657.516	5976.08	2
18127	657.576	6470.4	2
18130	657.272	8331.37	2
18134	657.342	9067.87	2
18138	657.332	9635.42	3
18147	657.776	8485.04	3
18149	657.703	10810.8	3
18155	658.469	7679.65	4
18160	658.602	3951.67	2
18163	658.848	4702.28	2
18171	657.872	6791.19	2
18177	658.313	7504.12	2
18179	658.004	7558.63	2
18185	659.119	9200.21	3
18189	658.47	10604.4	3
18191	658.63	8302.18	2
18197	658.781	5388.6	3
18202	659.552	6873.46	3
18205	658.834	3575	2
18207	659.433	5547.96	3
18210	659.441	5427.73	11
18211	659.356	5528.02	2
18215	659.254	6215.8	3
18218	659.669	5087.79	2
18219	659.091	6013.99	2
18223	658.844	6531.6	2
18224	659.518	6648.03	2
18227	659.315	7141.34	2
18228	658.694	7271.76	2
18229	658.834	7445.84	3
18233	658.649	7987.85	2
18234	659.488	8765.94	2
18241	659.106	9887.61	2
18245	659.343	10884.9	3
18247	659.013	11253.4	3
18248	658.901	11421.4	5
18249	659.017	11699.8	2
18253	660.122	3205.38	2
18268	660.453	6285.08	5
18276	659.795	8110.35	3
18277	659.693	8707.69	19
18282	660.143	9559.62	2
18283	660.686	9558.33	3
18293	660.591	10550.3	2
18296	660.333	10769	2
18298	659.883	11145.5	3
18299	660.449	11552.4	2
18300	659.916	11904.4	3
18305	661.374	7550.74	6
18308	661.077	6025.7	3
18310	661.829	4500.31	3
18313	660.662	4985.93	2
18314	661.326	4995.45	2
18318	661.591	6211.93	2
18319	660.86	6584.17	2
18326	661.341	7521.77	2
18330	660.818	7977.1	2
18333	660.981	8378.2	2
18342	660.816	10896.9	2
18343	661.23	10105.4	2
18346	661.206	10270.9	2
18351	660.827	11439.1	2
18355	661.363	12101.3	2
18357	662.557	3495.3	2
18361	662.202	6654.76	5
18362	662.212	4858.97	2
18364	662.623	4954.23	2
18366	662.097	5415.04	2
18371	661.826	5809.67	2
18372	662.335	7017.34	2
18375	662.34	7046.72	2
18377	662.831	7175.51	2
18379	662.485	8533.43	3
18382	661.993	7498.09	2
18384	661.818	7886.27	4
18387	662.385	8252.34	2
18389	662.278	8808.58	2
18396	662.334	9626.77	2
18404	662.377	11662.1	2
18411	663.323	5576.93	2
18415	662.65	6073.89	2
18418	663.296	6558.34	3
18424	663.521	7701.07	2
18427	663.466	7827.49	2
18430	662.895	8342.93	2
18433	663.489	8592.87	2
18434	663.315	8685.42	2
18440	663.872	9815.42	2
18441	664.277	9929.37	6
18442	663.014	10031.6	2
18443	663.413	10601	2
18444	662.867	10664.6	3
18452	664.04	2004.83	2
18453	664.426	5645.4	6
18460	664.586	4649.54	2
18462	663.864	5058.45	2
18465	664.143	5432.33	2
18468	663.988	5886.32	3
18471	664.329	6770.86	2
18478	664.342	8118.26	2
18479	664.334	8372.36	2
18481	664.396	8958.88	2
18483	664.161	9090.39	3
18484	663.813	9234.84	5
18486	663.852	9466.41	2
18503	665.027	3416.75	2
18508	665.819	5102.28	3
18510	665.351	4902.77	2
18517	665.569	6681.74	2
18518	665.597	6842.09	2
18520	664.882	7127.14	2
18521	664.819	7264.12	2
18526	664.858	8279.02	2
18532	665.232	8634.29	4
18534	664.826	8912.83	2
18540	665.329	10423.8	2
18542	665.553	10710	2
18550	666.349	4859.89	3
18551	665.994	4165.2	2
18552	666.001	4549.28	3
18554	666.326	6197.34	2
18555	666.343	5041.08	2
18557	666.306	5499.02	2
18574	665.854	8714.3	2
18575	666.308	8838.3	2
18577	666.576	9138.77	2
18583	665.864	9673.52	3
18586	665.992	10125.4	2
18587	666.003	10227.4	2
18589	665.854	10492.6	3
18590	666.034	10630	3
18592	665.851	10974.5	3
18593	666.331	11233	2
18595	666.018	11830.8	4
18597	666.484	12150.6	3
18601	667.078	5104.56	2
18603	667.071	5691.56	2
18610	667.583	5459.37	2
18612	666.93	5835.99	2
18614	667.184	6348.91	3
18624	667.327	8375.86	2
18627	667.505	9022.42	2
18628	667.366	9361.38	2
18630	667.474	9625.17	3
18633	667.365	10159.5	2
18634	667.602	10297.6	2
18638	666.824	11460.6	2
18643	667.383	12173.7	2
18648	668.289	5341.41	7
18654	667.638	3446.38	2
18661	667.995	8125.16	3
18662	667.79	4997.17	2
18664	668.857	5123.3	2
18665	668.378	5195.81	2
18668	668.455	8533.2	3
18671	668.046	6169.22	5
18674	668.61	6853.04	4
18675	668.11	7048.61	2
18680	668.135	7724.7	2
18686	668.067	8222.69	2
18687	667.996	8438.33	2
18689	668.647	8907.8	2
18690	667.816	9502.56	2
18693	667.845	9985.02	2
18694	668.374	10108.4	2
18696	667.825	10450.5	5
18697	667.836	10696	2
18700	668.313	11037.9	2
18701	668.337	11102.4	2
18702	667.888	11551.4	2
18703	668.197	11600.9	3
18705	668.424	11780.9	2
18706	668.468	11900.8	2
18707	668.156	11964.8	2
18709	668.14	12122.8	2
18721	668.719	4887.21	2
18722	669.654	5025.6	2
18726	668.865	5679.49	5
18730	669.348	6210.93	3
18731	668.982	6226.62	2
18740	669.327	7922.05	5
18749	668.86	8991.53	2
18751	669.011	9192.13	3
18753	669.365	9636.56	6
18755	669.333	9970.82	2
18758	669.31	10450.9	2
18760	669.647	10597.6	2
18770	670.369	4081.24	2
18774	670.608	4790.91	2
18776	670.334	5403.36	2
18783	670.08	6471.63	2
18786	669.811	6649.18	2
18788	670.326	6762.66	2
18789	670.567	6885.93	2
18791	670.416	7290.29	3
18793	670.045	7810.86	2
18796	670.828	8422.57	2
18802	670.377	10038.5	3
18805	670.459	10174.4	2
18812	669.969	11520	2
18819	670.798	3487.91	2
18826	671.319	5719.11	2
18827	671.12	5813.29	2
18833	671.337	7584.65	2
18837	671.612	7662.32	2
18840	671.391	8153.8	3
18850	671.318	9007.08	2
18851	670.881	9238.91	2
18857	671.577	9805.27	2
18858	671.379	9835.62	2
18859	670.894	9899.17	2
18864	671.386	10778.2	2
18878	671.792	3367.89	2
18890	672.185	7098.26	2
18903	671.977	9109.55	2
18905	672.49	9313.58	2
18906	672.281	9698.02	2
18908	671.711	10032.1	2
18909	671.943	10206.3	2
18938	672.773	5928.74	2
18944	672.863	7419.92	4
18945	672.834	7554.29	3
18949	672.809	9165.24	2
18951	672.816	9357.13	2
18956	672.666	10933.3	2
18967	673.973	2845.8	2
18972	673.826	4136.77	3
18979	674.373	5968.29	2
18986	674.081	6980.77	2
18991	673.713	7266.21	2
18993	674.366	9289.83	2
18999	674.599	8509.97	3
19000	674.214	8543.53	2
19011	674.028	9612.21	4
19015	673.841	10586.5	2
19020	674.586	7339.82	2
19023	675.337	1727.9	2
19027	674.802	2971.12	2
19030	675.354	6464.97	4
19032	674.966	5633.57	3
19035	675.813	4890.03	2
19043	675.59	5731.16	2
19050	675.081	6438.31	2
19057	674.795	7957.06	2
19059	675.535	8258.41	2
19061	674.974	8737.86	2
19064	675.365	9407.03	3
19067	675.088	9732.72	2
19068	675.401	10452.9	3
19071	674.814	11065.9	2
19072	675.034	11111.4	2
19073	675.423	11597.6	3
19074	675.335	11827.2	3
19075	675.369	11963.6	2
19079	676.01	4529.7	4
19084	676.585	5319.82	2
19086	675.885	5647.63	2
19089	676.345	6357.61	2
19091	675.811	6558.71	3
19097	676.355	7470.94	2
19104	676.098	8632.7	2
19112	676.155	10235.6	3
19113	676.352	10499	2
19115	675.85	10795.9	2
19119	676.383	11685.1	2
19121	677.609	5359.65	2
19125	677.058	4076.01	2
19128	676.935	5598.86	2
19130	677.22	8365.03	2
19134	677.517	6736.85	3
19136	677.616	6759.97	2
19138	677.09	6879.62	2
19141	677.174	7081.41	2
19157	676.929	9140.44	4
19159	677.34	9544.7	2
19160	677.331	9643	2
19161	677.57	9698.22	2
19162	677.404	9757.35	2
19164	677.59	9876	2
19166	677.806	10047.6	2
19169	677.327	10181.7	2
19171	677.614	10336.6	2
19172	677.349	10413.1	2
19174	677.248	10581.1	2
19175	677.378	10683.7	3
19177	677.327	11000.7	2
19180	677.175	11400.4	2
19181	677.029	11745.9	2
19185	678.351	2833.72	2
19189	678.014	5011.24	4
19191	678.318	3622.51	2
19200	678.483	5890.64	2
19206	678.149	6697.1	2
19209	678.087	6829.78	2
19212	678.611	7345.39	2
19213	678.279	7589.41	2
19214	677.87	7966.12	4
19215	677.803	8196.42	2
19220	677.823	8961.92	2
19222	678.816	9064.7	2
19224	678.509	9288.26	2
19240	679.318	4801.27	3
19242	679.35	4779.46	2
19244	679.674	5539.09	3
19246	679.519	5934.97	3
19247	679.603	6039.03	2
19248	678.843	6144.27	2
19249	678.858	6205.59	2
19256	679.319	7231.53	2
19257	679.035	7284.66	3
19258	679.108	7487.75	3
19264	679.525	8561.52	3
19267	678.843	9027.85	2
19268	678.856	9190.48	2
19278	679.515	11959.8	2
19280	679.516	12071.2	2
19283	680.046	2764.5	2
19284	680.492	5266.95	2
19292	679.891	5274.82	2
19295	680.484	7625	4
19302	680.3	6522.65	5
19309	680.238	7481.13	2
19311	680.025	7897.13	4
19316	680.685	8114.39	3
19319	679.848	8634.48	2
19321	680.357	8988.25	2
19325	680.079	9501.85	2
19328	680.071	10540.8	2
19334	680.359	11119.7	3
19336	680.057	11391.8	2
19337	679.906	11441	2
19345	681.354	5944.9	3
19346	680.817	3974.99	2
19349	681.85	4450.95	2
19355	681.356	5289.46	2
19358	680.859	5645.02	3
19379	681.349	9253.81	2
19382	681.355	9612.18	2
19385	681.02	10302	5
19387	681.039	11717.5	2
19393	682.283	2638.98	2
19394	681.824	2717.16	2
19408	682.5	7256.41	4
19409	682.589	7516.52	2
19418	681.678	8846.99	2
19422	682.352	9397.59	2
19424	682.512	9855.15	2
19425	682.003	9941.21	3
19426	681.914	10066.1	3
19431	682.239	11817.5	3
19433	683.824	2010.68	2
19442	683.138	5249.66	2
19445	683.217	5650.84	2
19455	683.457	6542.23	2
19456	683.002	6772.82	4
19459	683.136	7260.8	2
19460	683.369	7724.96	3
19463	682.969	7994.9	2
19468	683.346	8365.25	2
19469	682.858	8757.25	2
19470	683.807	8809.74	2
19471	683.606	8997.17	2
19472	683.056	9299.94	3
19474	683.332	9703.89	2
19475	683.359	10106.7	2
19478	682.692	10941.9	5
19479	683.324	10472.7	3
19481	683.36	10812	2
19483	683.06	11140.5	5
19492	684.375	4777.5	2
19493	684.575	4912.81	2
19494	684.347	5352.76	2
19504	683.853	7382.56	2
19509	683.849	8501.73	4
19510	684.033	8622.09	2
19523	684.326	10653.2	5
19524	684.376	10716.6	2
19527	684.369	11664.9	2
19528	684.431	11905.4	2
19535	684.794	3511.33	2
19536	685.114	4237.42	2
19538	684.836	3759.56	2
19544	685.839	6025.43	2
19545	685.543	6629.85	2
19552	684.846	7817.36	3
19553	685.551	6714.2	3
19559	684.824	9109.23	3
19560	684.84	9079.4	2
19562	685.326	9940.62	3
19569	685.536	11061	2
19570	685.599	11408.4	2
19576	685.688	7335.73	2
19579	686.04	3805.82	2
19586	686.371	6931.8	4
19592	686.737	6454.64	4
19597	686.364	7253.47	4
19600	686.387	7824.67	2
19601	686.63	7918.9	2
19606	686.368	9207.63	2
19610	686.333	10268	2
19612	686.402	10989.8	2
19614	686.062	11172.1	2
19625	687.331	2800.71	2
19628	687.374	4715.19	2
19637	687.856	6172.9	2
19644	686.854	6959.69	2
19650	687.786	5146	2
19654	686.859	8195.07	2
19658	687.358	8831.79	2
19659	687.099	8912.12	2
19661	687.351	9338.22	2
19664	687.31	9519.62	2
19668	687.642	9799.49	3
19671	686.793	10077.1	5
19678	686.766	12057.2	2
19680	687.828	2734.33	2
19685	688.082	5301.98	2
19687	687.752	5645.8	2
19699	687.838	6974.15	3
19702	688.364	7193.91	2
19703	688.619	7275.12	2
19704	688.11	8933.92	2
19707	688.193	8098.67	2
19709	688.431	8041.99	3
19710	688.252	9380.91	3
19720	689.125	9219.12	3
19725	687.651	10212.1	2
19726	688.347	10340	3
19728	688.111	11223	2
19729	687.859	10528.6	2
19733	688.506	11381.9	4
19734	688.307	11546.8	2
19738	689.333	3913.81	2
19746	689.107	4602.79	2
19750	689.08	6509.85	2
19753	688.856	6367.29	2
19757	689.347	6800.82	2
19758	689.672	6854.23	3
19759	689.32	7129.65	2
19760	688.878	7510.6	2
19777	689.053	10754.7	6
19781	689.032	11500	2
19785	689.231	11949.5	2
19787	688.893	12214.2	2
19789	690.263	2268.91	2
19790	690.339	3951.59	2
19791	690.35	3969.19	2
19795	689.706	4420.15	2
19798	690.483	5627.22	4
19799	690.101	5949	2
19806	690.059	5827.29	2
19811	689.97	6514.16	2
19817	689.895	7705.7	2
19819	690.345	7911.26	2
19822	689.661	8566.65	2
19823	689.973	8633.96	2
19824	690.253	8663.34	2
19832	690.483	9350.78	2
19834	690.352	9691.52	2
19836	690.334	9936.26	3
19842	690.033	10841.5	2
19844	690.85	11060.1	2
19854	691.044	4580.6	2
19857	691.649	5667.68	2
19860	691.01	5900.72	3
19861	692.007	5464.72	3
19863	690.831	6356.49	2
19866	691.345	6608.58	2
19869	691.185	7343.39	3
19874	690.675	8233.17	2
19877	691.336	9717.91	4
19878	690.633	8856.1	2
19886	690.659	10945.1	2
19888	690.848	11169.9	3
19889	691.369	11649.2	3
19902	692.685	4862.92	3
19907	692.817	5840.82	2
19913	692.541	7171.29	3
19914	691.852	7249.07	2
19921	692.865	8349.65	2
19929	692.21	9550.32	2
19930	692.17	9615.34	2
19931	692.549	9795.23	2
19933	692.611	9874.67	2
19935	691.714	10388.3	4
19936	692.352	10738	2
19938	692.393	11332.6	2
19939	692.866	11797	2
19945	693.35	3498.6	2
19954	692.847	4862.23	4
19956	692.787	5903.86	2
19961	693.334	6232.2	2
19964	692.821	7484.71	2
19965	693.34	7683.74	2
19966	693.404	7860.4	3
19967	693.358	8137.19	2
19968	693.365	8201.31	2
19969	693.353	8303.5	2
19973	693.498	8681.56	3
19976	693.354	9086.7	2
19978	693.463	9218.34	2
19985	693.675	10926.3	3
19993	694.294	2451.41	2
19999	694.412	4583.42	3
20003	694.604	6199.34	2
20011	694.353	6926.61	2
20015	694.357	8024.59	4
20018	693.988	7906.31	2
20019	694.54	8077.04	3
20023	693.895	9262.22	2
20024	693.664	9679.64	2
20025	694.529	9754.53	3
20027	694.301	10297.4	2
20029	694.393	10371	2
20032	693.852	10539.7	2
20033	693.707	10778.1	9
20034	693.837	10749.5	2
20038	694.347	11503.9	2
20050	694.858	4553.97	2
20051	695.339	4866.17	2
20053	695.085	5490.96	2
20060	695.508	6897.87	2
20066	694.836	7593.23	2
20069	695.044	8249.29	2
20075	695.332	8755.59	2
20076	694.852	8879.42	2
20079	695.338	9319.28	2
20081	694.854	9477.35	2
20086	695.012	9947.1	2
20087	694.921	10116.4	2
20091	694.912	11362.2	2
20093	694.899	11603.1	2
20096	696.353	4811.54	2
20097	696.36	2950.31	2
20104	696.522	4979.01	3
20105	696.392	5328.7	2
20111	696.486	6041.25	2
20115	696.326	7161.64	3
20116	696.355	7264.17	2
20121	695.834	8165.72	2
20126	696.38	8809.48	2
20132	696.613	9637.9	4
20133	696.629	9880.4	2
20139	696.613	10622.7	2
20140	695.832	10902.5	2
20143	696.304	11305.4	2
20156	696.884	5286.73	2
20158	697.335	6081.78	2
20162	697.596	6353.71	2
20169	697.325	8017.85	4
20172	697.36	8433.72	2
20173	697.502	8551.11	3
20174	697.374	8902.88	2
20175	697.358	8949.42	2
20177	696.767	9097.42	2
20184	697.644	10108.6	3
20185	697.022	10402.1	2
20189	697.505	11685.2	2
20192	698.334	2807.44	2
20196	698.103	4944.99	2
20198	698.184	5523.43	3
20199	698.369	5407.49	2
20208	698.425	7317.49	2
20211	698.603	7589.67	2
20218	698.708	8380.23	4
20220	698.687	9205.11	2
20226	697.827	10003.5	2
20230	698.544	10693.8	2
20236	698.023	11309.8	2
20246	699.683	3792.46	3
20247	698.834	4374.94	2
20253	699.344	5344.8	2
20255	698.78	5594.43	2
20261	699.319	6216.36	2
20264	699.168	6664.92	2
20266	699.303	6867.15	2
20270	698.925	8199.02	2
20274	699.368	9153.07	2
20276	698.652	9483.86	2
20280	699.359	10077	2
20282	699.162	10250.4	2
20285	699.084	10475.8	2
20289	698.872	10919.5	2
20292	699.02	11567.3	2
20302	700.802	4144.4	2
20314	700.285	8828.74	6
20316	700.381	7219.21	2
20317	700.459	7286.47	3
20319	699.819	7384.23	2
20322	700.759	5033.41	4
20325	699.865	8830.95	2
20331	700.463	9708.72	3
20332	699.935	9865.22	2
20335	700.842	10564.7	2
20336	700.343	10657	2
20347	700.803	5044.01	2
20349	701.281	5405.18	2
20352	701.322	6786.62	2
20354	701.06	7748.09	4
20355	701.58	6802.7	2
20360	701.096	7051.71	2
20361	701.294	10586.9	17
20362	701.012	7608.31	2
20369	700.879	8759.17	2
20372	701.484	9230.15	2
20374	701.359	10129.7	2
20377	701.735	9934.18	3
20382	702.345	4398.4	2
20402	702.388	7980.46	2
20403	702.362	7109.48	2
20407	702.118	9164.46	2
20413	702.557	8049.57	3
20414	701.854	8168.4	2
20415	701.87	8260.02	2
20418	701.771	8501.58	2
20426	702.71	9341.04	2
20429	701.871	10052.8	2
20430	702.268	10894.1	3
20435	702.386	11071.5	7
20450	703.713	5120.18	2
20454	704.428	5968.57	5
20455	703.855	8724.07	4
20458	703.369	7605.37	2
20459	703.087	7828.26	2
20461	703.104	8308.37	2
20463	702.898	8455.42	3
20468	702.692	9102.21	2
20469	702.752	9543.21	2
20474	702.879	10874.9	2
20476	702.678	11421.9	3
20482	704.059	3001.61	2
20492	704.089	5164.61	2
20493	704.026	5300.19	2
20499	704.357	6859.32	2
20502	703.844	6546.16	2
20509	704.038	7529.34	2
20514	704.162	8200.82	3
20515	704.612	8261.99	2
20519	704	8777.59	2
20528	703.863	9485.35	2
20530	704.356	9835.67	2
20531	704.526	10087.5	4
20537	703.83	11100.1	2
20538	703.994	11843.1	2
20549	705.68	4781	2
20552	705.106	6862.21	2
20553	705.539	4725.94	2
20554	705.107	6634.44	2
20557	704.822	7382.81	2
20559	704.852	7923.86	2
20566	706.001	7401.59	3
20570	705.333	9774.04	2
20572	705.529	9998.7	2
20575	705.102	10703.8	2
20588	706.855	6205.56	4
20595	706.613	7127.34	3
20596	706.612	4861.8	2
20597	706.612	6446.62	2
20602	705.851	8346.11	2
20603	706.152	8469.84	2
20606	706.27	8901.36	2
20608	705.867	9306.64	2
20617	706.467	10098.2	3
20620	706.63	10559	3
20625	706.198	11631.4	3
20628	707.447	2493.57	4
20630	707.35	4782.82	3
20634	707.67	4107.19	5
20635	708.068	5990.87	3
20637	707.361	4361.9	2
20639	706.872	4777.18	2
20640	707	4924.55	2
20642	707.614	5164.3	3
20647	707.374	6982.32	2
20648	706.755	7097.01	2
20650	707.585	7402.23	3
20653	706.867	8107.42	2
20659	706.832	9172.22	2
20673	707.671	11249.4	8
20682	707.832	4156.7	2
20690	708.515	7412.5	5
20693	708.476	6410.62	2
20694	708.219	6681.47	2
20695	707.818	7375.65	3
20696	708.093	7441.12	2
20697	707.899	7512.03	2
20700	708.401	7855.24	2
20711	708.161	8639.53	2
20714	708.507	8744.63	2
20717	708.63	9049.5	2
20718	708.218	9099.35	2
20719	708.376	9648.07	2
20720	708.241	9693	2
20722	707.908	9876.95	2
20728	708.202	10554.1	2
20729	708.343	10691.2	2
20732	708.335	11030.9	2
20733	707.837	11132.2	2
20734	708.114	11224.4	2
20743	709.2	6058.65	4
20749	709.105	4315.16	2
20758	709.34	6751.98	2
20759	708.9	6836.66	2
20762	709.389	7466.4	2
20765	709.505	8305.89	2
20766	708.891	8369.54	2
20769	709.598	8867.17	4
20775	709.966	7465.89	4
20776	709.123	10079.1	3
20786	709.852	11644.7	2
20796	710.359	5389.84	3
20797	710.373	6914.81	2
20799	710.365	4237.66	2
20805	710.387	5948.74	2
20806	710.363	6277.87	2
20809	710.085	6470.46	2
20812	709.642	7134.58	2
20813	710.575	7184.22	2
20816	710.373	7578.83	3
20821	710.058	8790.79	2
20824	710.119	9199.19	2
20835	709.843	10725.8	2
20836	709.828	10646.4	2
20839	710.033	11392.7	2
20840	710.375	11472.6	2
20841	709.845	11544.2	2
20861	710.859	6193.29	2
20864	711.147	6947.78	2
20865	710.874	7472.95	2
20873	711.255	9078.9	2
20880	711.626	9582.37	2
20884	711.125	9871.85	2
20899	712.398	3636.26	2
20900	711.808	3754.14	2
20901	713.039	7101.69	4
20904	712.079	4871.88	2
20908	712.65	6397.1	2
20925	712.874	7317.38	2
20927	712.03	7403.63	2
20932	712.702	8466.03	3
20935	712.355	8995.83	5
20936	711.659	9257.84	2
20942	711.68	10361.1	2
20944	711.943	10567	2
20946	712.5	10822.7	2
20958	713.569	6950.83	3
20959	713.695	7542.64	2
20960	713.358	8997.08	3
20966	713.353	7004.5	2
20967	713.574	7483.3	2
20974	712.909	8071.86	2
20980	713.492	9280.66	3
20982	713.21	9637.66	2
20984	713.002	9705.47	2
20988	713.261	10458.5	4
20989	713.475	11475	3
20990	713.383	11536.1	2
20992	712.9	12038.3	2
20998	714.344	4772.55	2
21004	714.134	6961.72	2
21007	714.335	7670.59	3
21011	713.997	8318.46	2
21013	714.175	8374.39	2
21015	714.672	8905.87	2
21017	714.081	9368.59	3
21019	714.362	9806.17	2
21020	714.727	7881.21	3
21024	713.711	10118.7	3
21030	713.716	10862.6	3
21033	713.893	11582.4	2
21039	714.823	2662.86	2
21040	714.95	5656.72	2
21044	715.869	3271.79	2
21050	715.733	8684.67	3
21057	715.464	9727.39	4
21059	715.33	8541.79	3
21060	715.08	8562.43	2
21061	715.202	10013.8	2
21062	714.881	9088.85	3
21064	715.362	9509.7	2
21065	714.68	10988	2
21074	715.682	9199.56	3
21075	714.943	11275.7	2
21077	716.17	5141.51	2
21079	716.324	3855.86	2
21083	716.208	7108.24	3
21086	717.178	5220.93	3
21089	716.59	6613.42	2
21090	716.536	6829.59	3
21091	716.11	6794.29	2
21093	716.63	7250.19	2
21096	716.362	7548.56	2
21101	716.39	9021.33	2
21107	716.113	9983.94	3
21108	716.395	10269.7	2
21109	716.369	10625.5	2
21110	716.03	10759.4	2
21115	716.116	11452.7	2
21121	716.923	3653.39	2
21124	717.448	4702.46	2
21125	717.178	5445.24	2
21131	717.134	6689.54	2
21135	717.387	7682.4	2
21140	716.955	8754.32	2
21142	717.357	9113.15	2
21143	717.388	9211.39	3
21144	716.871	9238.82	2
21147	717.365	9590.94	2
21148	717.68	9628.67	2
21149	717.124	10525.5	3
21153	717.668	11311.3	2
21154	717.448	11542.4	2
21155	717.368	11583	2
21156	717.188	11895.9	2
21163	718.688	7047.55	5
21164	718.608	4324.96	2
21165	718.371	6195.76	6
21171	718.483	6212.59	4
21174	717.879	7478.18	2
21176	718.183	9050.45	4
21181	718.135	8856.92	3
21184	718.589	9950.95	2
21185	718.157	9988.72	2
21189	717.708	10233.4	2
21190	718.06	10401	5
21191	718.146	10559.2	2
21199	719.097	4246.43	2
21209	719.633	5931.9	2
21216	719.147	7045.44	2
21217	718.972	7203.36	5
21218	719.562	7446.94	2
21221	719.285	8091.06	2
21226	719.683	8760.66	2
21227	719.106	8956.54	4
21228	718.838	9029.96	2
21229	719.425	9164.61	3
21230	719.198	9242.01	2
21231	719.032	9333.85	2
21232	719.165	9416.9	2
21238	718.783	10049.6	2
21241	718.891	10693.4	2
21245	718.887	11459.6	2
21259	719.962	6302.3	2
21262	720.077	4860.75	2
21263	720.077	4861.3	2
21268	720.374	7443.32	4
21274	720.42	6734.95	2
21276	720.624	7005.35	2
21278	720.409	7323.39	2
21282	720.683	6773.3	2
21284	720.375	8599	3
21290	719.829	8708.85	2
21297	720.344	10296.3	2
21300	720.736	10797.3	2
21301	720.357	10900.7	2
21302	720.435	11033.5	2
21303	720.515	11320.5	4
21304	720.72	11592.4	3
21305	720.357	11660.6	2
21317	721.392	6189.54	2
21319	721.101	6624.95	2
21323	720.66	7787.2	2
21326	721.557	8227.88	2
21340	721.527	10039.8	2
21342	721.518	10127.8	3
21345	721.118	10750.4	2
21356	721.792	2308.41	3
21363	723.159	5398.35	3
21367	721.909	6129.1	3
21368	722.359	6647.23	3
21371	721.892	6656.9	2
21394	722.36	10431.2	2
21398	722.518	10725	2
21400	722.119	10980.4	2
21413	723.822	3612.68	2
21416	723.132	6107.88	2
21418	723.13	5548.08	2
21429	722.755	7671.47	5
21432	722.747	8069.55	3
21433	722.938	8174.75	2
21434	722.856	8226.43	2
21437	722.864	9522.79	2
21439	722.856	8549.98	2
21445	723.373	8965.8	2
21454	723.216	10349.2	3
21461	723.832	11821.2	2
21471	724.548	5010.04	3
21473	724.617	4569.68	2
21474	724.364	6326.75	2
21478	723.791	8459.86	2
21491	723.886	7885.76	4
21495	723.697	9217.99	2
21499	724.197	9518.68	2
21501	725.058	9584.09	3
21502	724.362	9690.19	2
21504	723.908	10667.4	8
21516	725.336	3760.94	2
21525	725.509	6519.01	2
21537	725.019	8584.88	2
21541	725.322	8801.18	2
21542	725.399	9164.71	4
21565	726.367	5906.09	2
21566	726.355	5119.54	2
21570	725.861	7988.5	4
21571	725.85	7005.42	2
21576	726.844	6022.52	3
21585	726.334	8717.53	2
21587	726.03	9307.21	3
21589	726.21	9305.64	2
21620	727.54	5583.15	3
21624	727.524	4246.56	2
21634	727.594	7867.66	2
21636	726.863	8063.58	2
21640	727.388	8469.18	3
21642	727.636	9360.01	2
21646	727.142	10259.1	3
21649	727.196	11466.2	2
21650	727.384	10619.1	3
21651	727.583	10782	3
21655	726.739	11793.7	3
21656	726.684	12123.7	4
21661	728.654	6117.86	2
21667	727.856	6414.45	2
21673	728.034	7989.12	2
21676	728.387	8134.83	2
21679	728.61	8845.09	6
21680	728.137	8974.02	2
21685	728.543	10125.6	2
21702	728.833	5853.95	2
21705	729.063	6569.19	6
21706	728.93	6733.43	2
21710	729.169	7135.93	3
21713	729.593	8208.6	2
21720	729.549	9724.51	3
21744	729.883	7455.42	3
21747	730.434	7970.31	3
21755	729.86	9455.34	5
21758	730.27	9900.85	2
21759	730.72	10276.1	2
21760	730.121	10333.3	2
21761	730.387	10377.8	2
21762	730.391	10526	2
21766	731.351	1804.07	2
21770	731.352	4078.97	2
21771	730.847	3237.58	2
21775	730.723	7350.11	2
21776	731.798	5797.15	3
21779	731.737	5035.02	2
21784	731.698	6876.05	2
21790	731.223	7829.77	3
21792	731.616	8043.21	2
21793	730.905	8133.42	2
21794	731.372	9154.34	6
21804	730.96	10074.9	2
21806	731.386	10206.2	2
21813	731.362	11688	4
21818	731.846	4803.92	2
21820	732.836	4851.68	2
21822	732.111	7145.79	3
21824	732.353	6574.11	3
21825	732.145	6958.42	2
21832	732.055	8669.79	2
21834	732.362	8811.6	3
21837	731.806	9046.61	2
21845	732.07	10466	2
21846	732.544	10871.9	2
21847	732.4	10957.1	3
21850	733.03	3497.95	2
21855	733.363	4387.23	2
21856	733.618	4427.5	2
21860	733.318	4962.55	3
21861	733.434	5118.17	3
21862	733.518	7718.75	3
21866	732.847	6432.05	2
21868	733.881	6768.44	2
21871	732.831	7057.17	2
21873	732.87	7334.01	2
21874	733.067	7503.53	3
21882	733.399	8076.22	2
21885	732.861	8384.56	2
21887	733.475	9568.18	2
21893	733.536	10504.8	2
21896	733.03	10770.8	2
21905	734.362	7258.98	2
21914	734.375	6283.52	2
21915	734.214	6700.75	2
21920	734.411	7871.38	2
21923	734.899	8622.72	2
21925	734.02	8746.89	2
21936	734.369	11613.9	3
21942	735.294	5684.51	4
21945	734.964	4596.92	2
21946	735.362	5351.96	2
21954	735.768	7163.16	3
21959	735.596	7305.58	2
21963	735.469	7692.47	2
21973	735.501	9101.91	2
21974	735.524	9190.18	2
21975	734.849	9461.78	2
21976	735.034	9653.24	2
21980	734.851	10119.4	3
21981	734.862	10189.1	3
21983	735.506	10309.2	3
21984	734.808	11063.6	3
21992	735.483	11271.8	2
21996	734.843	11725.1	2
22007	735.857	4071.56	2
22008	736.38	5244.07	4
22012	736.114	6849.3	2
22014	735.862	6013.9	2
22029	736.146	9553.25	2
22034	736.116	9812.67	2
22038	736.597	10581.7	2
22039	736.47	10589.9	3
22041	736.066	11689.7	2
22043	737.623	4749.96	2
22048	737.479	6604.55	5
22052	736.715	6216.13	2
22053	737.648	6254.01	2
22054	736.776	6326.67	2
22060	738.217	6828.71	3
22062	737.479	7469.28	3
22064	736.67	8576.66	2
22069	737.618	8890.76	2
22074	737.503	9400.49	4
22079	737.522	11178.7	13
22080	737.147	11189.3	2
22083	737.396	11513	2
22093	737.72	4328.86	3
22094	738.598	4347.11	2
22096	738.179	6568.24	2
22104	737.975	7123.99	3
22107	738.545	7850.88	3
22108	738.572	7645.97	2
22110	738.381	8138.71	2
22111	737.875	8372.39	2
22118	737.841	10038.1	2
22124	738.684	11436.8	2
22125	738.912	8614.73	6
22126	738.447	11833.8	3
22135	739.369	6029.12	2
22136	739.374	6276.05	8
22137	739.37	5959.53	2
22141	738.884	7207.45	2
22144	739.519	7523.27	2
22146	738.891	7841.68	2
22148	739.121	8262.9	2
22153	739.126	8687.87	2
22155	738.842	9031.13	2
22158	739.529	9690.25	2
22162	739.393	10171.2	2
22163	739.37	10219.4	2
22165	739.961	10425.7	3
22167	739.364	10641.7	2
22168	739.386	10805	2
22172	739.831	2681.1	2
22178	739.865	6809.77	2
22180	740.255	6987.02	4
22189	740.48	9309.9	3
22196	740.433	9447.48	8
22198	740.528	9473.08	2
22199	740.132	9926.44	2
22200	739.836	10057.8	2
22204	740.008	11571.6	2
22208	740.825	2837.58	2
22221	741.37	6667.55	2
22229	741.546	7641.54	2
22232	741.512	9011.61	2
22239	740.862	8535.53	2
22240	741.438	8662.03	2
22245	740.888	9702.21	2
22246	740.907	9758.92	2
22254	741.978	2303.26	2
22260	741.866	6723.44	2
22262	741.897	6890.65	2
22268	742.326	8421.27	2
22273	742.375	9586.56	2
22274	741.781	9832.34	2
22277	742.704	10036.1	4
22281	742.065	10332.4	2
22282	742.324	10667.5	3
22296	743.753	4781.94	2
22321	742.66	9222.79	2
22329	743.778	11255.3	4
22337	744.362	5330.94	2
22338	744.115	6246.64	2
22339	743.875	7579.97	3
22342	744.65	6075.85	2
22344	744.368	6691.79	3
22347	743.949	6810.96	2
22350	743.914	7153.76	2
22362	744.875	9386.76	3
22363	744.664	9558.32	4
22369	744.047	10646	3
22370	744.385	10725.8	2
22373	744.694	12012.6	2
22379	745.349	7093.97	7
22383	745.333	4836.88	2
22385	744.652	5630.97	2
22394	745.722	7468.1	3
22396	745.902	7586.63	2
22398	744.85	9914.85	2
22400	745.39	8099.79	2
22404	745.368	8992.4	2
22407	745.628	9141.51	2
22411	745.62	9680.74	2
22412	744.902	9899.6	2
22425	745.817	3764.44	2
22431	746.714	6943.82	2
22434	745.883	7485.34	2
22436	746.528	6458.24	2
22437	746.221	7276.45	3
22439	746.848	7986.59	2
22440	746.425	8209.06	3
22441	746.493	8325.68	3
22443	746.191	8387.3	2
22445	746.229	8721.58	2
22452	746.626	9252.08	2
22453	746.518	9710.08	3
22461	746.077	11677.9	3
22465	747.333	2865.87	2
22470	747.051	5589.15	2
22476	747.364	7132.36	2
22479	747.218	7654.55	2
22481	747.086	7952.61	2
22495	746.877	10187.9	2
22514	748.697	7119.94	2
22520	748.728	7934.43	3
22521	748.224	7872.12	2
22523	747.655	8571.79	2
22529	748.845	10228.4	2
22535	747.57	10959.9	2
22537	747.703	11074.4	2
22542	749.356	3899.44	2
22545	748.794	5847.81	2
22546	749.035	7929.13	2
22549	749.136	6080.15	2
22550	749.115	5919.33	2
22551	749.35	6009.96	3
22557	749.624	7888.06	2
22558	749.357	8055.15	2
22561	749.135	9454.14	2
22563	749.131	9544.92	2
22567	749.517	10142	2
22568	749.383	10325.6	2
22572	749.888	10768.8	2
22573	749.406	10814.1	2
22574	749.384	10876.5	2
22577	748.886	11342.3	8
22579	749.334	11706.7	2
22586	749.836	4912.9	2
22587	750.282	7674.25	5
22588	750.4	7717.83	2
22592	750.131	7953.93	2
22594	750.405	7491.83	2
22598	750.511	8321.1	2
22603	749.873	8740.58	3
22604	749.801	8939.42	2
22605	750.117	8873.48	2
22610	750.468	10021.6	2
22614	749.935	11545.3	2
22615	750.208	12125.2	2
22617	751.624	6360.27	4
22618	751.859	4307.91	2
22620	750.891	4623.17	2
22621	751.373	6544.95	2
22622	751.37	7277.43	2
22625	751.487	5330.63	2
22626	751.601	6287.73	2
22627	751.352	7035.8	2
22630	751.879	7835.41	2
22631	751.674	7968.51	2
22632	751.381	8232.74	2
22637	751.429	8936.05	3
22645	751.487	9725.86	5
22647	750.904	10594	2
22649	751.036	10722.5	2
22651	751.401	11466.1	3
22654	752.681	6059.96	2
22656	751.963	3562.55	2
22657	752.394	4040.37	2
22658	752.621	5329.73	2
22665	752.261	7866.23	2
22668	752.324	8776.08	2
22669	752.648	8841.98	2
22671	752.363	9115.43	2
22674	752.617	9582.43	2
22675	752.142	9827.22	2
22683	752.402	12137.2	2
22685	753.321	3517.68	2
22688	752.873	5620.5	2
22691	752.878	6125.9	2
22692	753.402	6248.84	3
22695	753.722	6582.83	2
22697	752.857	6834.16	2
22699	753.376	6938.86	2
22700	753.151	7097.04	2
22702	753.647	7185.44	2
22708	753.633	8322.84	3
22715	753.12	9896.94	2
22716	753.621	9898.96	2
22717	752.702	10088	4
22718	753.054	10277.3	2
22719	753.338	10417.6	2
22720	753.229	10536.2	4
22721	753.372	11065	2
22732	753.945	6440.58	2
22733	754.084	6527.43	2
22734	754.064	6636.68	2
22735	753.865	6778.29	2
22739	754.645	7473.97	2
22754	754.38	10116.3	2
22758	754.188	11619.2	2
22762	755.328	2303.79	2
22769	754.84	5656.05	2
22774	755.057	7011.2	2
22779	754.875	8270.34	2
22786	754.874	9438.96	2
22791	754.932	10260.8	3
22792	755.295	10893.4	4
22794	755.549	11447.8	2
22795	755.194	11982.6	2
22804	756.204	4987.15	2
22806	756.256	5468.2	3
22816	756.539	7938.19	3
22824	756.348	9656.62	2
22825	756.151	9730.81	2
22826	755.885	10332.5	2
22833	756.362	11076.7	2
22835	755.868	11233.8	2
22844	756.943	7114.51	3
22848	757.399	7450.88	2
22849	757.398	7819.86	3
22855	757.117	8816.8	4
22856	756.923	8881.37	2
22857	756.872	8965.4	2
22858	758.03	9921.39	4
22866	757.031	11641.9	3
22877	758.493	6510.76	4
22888	757.908	9502.56	2
22892	758.41	10002	2
22899	757.916	11873.4	2
22904	758.838	5936.45	2
22907	759.002	7595.28	2
22918	759.111	8937.03	2
22921	759.146	9383.37	2
22923	758.883	9560.84	2
22924	759.419	10677.3	2
22928	758.776	10194.6	3
22929	758.776	11022.5	3
22930	758.932	10376.5	2
22933	759.619	10541.1	2
22938	759.414	11504.5	3
22941	758.872	12158	2
22947	760.413	6675.37	2
22949	760.041	4700.54	2
22951	759.878	6103.16	2
22952	760.505	6513.74	5
22955	760.14	8087.54	2
22959	761.165	7301.98	4
22970	760.163	10654.3	3
22972	760.385	10039.9	2
22973	760.221	10090.2	2
22984	760.164	11144.2	2
22996	761.641	6073.21	2
22998	761.62	6742.84	3
23007	760.874	6934.65	3
23009	761.356	7377.79	2
23013	761.054	7806.34	3
23015	761.918	7775.97	2
23018	761.668	8520.74	5
23019	761.365	8451.27	2
23021	760.836	8567.02	2
23030	761.9	9831.72	4
23035	760.91	10403.6	2
23036	761.367	10627.8	2
23043	762.381	6306.96	2
23049	761.862	7955.34	2
23050	761.877	8200.49	2
23056	762.372	9469.27	2
23059	762.561	10040.1	3
23062	762.507	11162.3	2
23067	763.138	6008.58	2
23068	762.872	4558.91	4
23069	762.96	6417.29	2
23085	763.563	7851.47	2
23091	763.411	9368.82	3
23092	763.405	8716.26	3
23093	762.731	8935.28	2
23095	764.161	9829.51	4
23103	763.222	9913.01	3
23108	763.427	10853.2	4
23109	763.136	11063.9	2
23112	762.885	11932	2
23118	763.81	4328.98	3
23121	763.857	5442.49	2
23125	764.594	6752.81	3
23140	764.63	8603.33	2
23143	764.008	8863.12	2
23145	764.386	9670.34	2
23146	764.235	9713.17	2
23148	763.9	9969.48	2
23149	764.394	10352.1	2
23150	764.39	10742.5	3
23152	764.854	3007.66	2
23164	765.568	7753.76	3
23172	765.895	8407.59	2
23177	764.884	10112.5	2
23191	766.873	6686.2	2
23196	766.393	8172.42	2
23198	766.411	8315.24	2
23205	766.965	10677.1	4
23220	767.629	6307.52	2
23221	767.35	6049.82	2
23222	767.223	5665.03	2
23224	766.856	5744.22	2
23228	767.392	6231.94	2
23230	767.051	7782.26	2
23234	767.072	6828.72	2
23238	767.405	7077.98	2
23247	766.91	8433.63	2
23251	767.182	9085.92	3
23253	766.722	9333.32	2
23254	767.393	9506.67	2
23255	767.367	9679.91	2
23257	767.238	9755.54	3
23262	767.189	10349.4	2
23263	767.403	10423.4	2
23264	767.432	10585.7	4
23267	767.43	11112.6	4
23268	766.902	11673.1	3
23283	768.429	7354.88	2
23285	767.915	7892.53	2
23288	767.914	8715.85	2
23292	768.146	8911.83	2
23294	767.984	9391.23	2
23303	768.543	10766.4	2
23313	768.861	5348.22	2
23322	769.421	8929.83	2
23323	769.142	6715.51	2
23328	768.895	7259.7	3
23342	769.128	10469.6	2
23345	768.889	11743.6	2
23347	770.334	2328.98	2
23351	769.695	5876.94	2
23358	770.412	9254.75	4
23359	770.551	8693.32	3
23361	769.906	10141.7	6
23365	770.383	10570.2	2
23368	769.931	10984.9	3
23371	770.072	11679	2
23381	771.622	4823.8	2
23384	771.431	6733.35	2
23387	771.348	6981.03	2
23388	771.419	9571.06	2
23393	771.072	8282.33	3
23399	771.03	8783.46	2
23402	770.687	9155.61	2
23411	771.055	10864.7	2
23414	771.377	10995.6	2
23416	771.378	11626.2	2
23424	772.279	6434.25	4
23425	772.152	6625.39	2
23426	771.935	7756.78	2
23433	772.394	8508.97	2
23436	772.232	8970.87	2
23437	771.91	9040.46	2
23438	772.514	9522.09	2
23440	772.536	9694.01	2
23441	771.877	10033.8	4
23444	772.07	11421.5	3
23449	773.254	7433.52	4
23454	773.176	7263.99	2
23456	773.353	7321.58	2
23458	773.041	7585.12	2
23459	773.207	7652.6	2
23468	773.371	8711.3	2
23469	773.153	8995.89	2
23471	772.857	9367.8	10
23475	772.848	10206.2	2
23477	773.66	7894.32	2
23478	773.416	10728.9	2
23479	773.042	11099	2
23480	772.888	11312.6	3
23496	774.086	6524.53	2
23498	774.428	7290.94	3
23503	773.896	7096.87	2
23507	774.382	7572.68	2
23509	774.36	8611.85	3
23510	774.338	8079.49	2
23511	774.419	8143.24	2
23526	774.748	11457.7	2
23530	774.04	12107.9	2
23552	774.954	9647.45	3
23553	775.058	9656.91	3
23554	775.383	9744.17	2
23555	775.406	9869.03	2
23556	775.411	10033	2
23557	775.366	10244.1	4
23561	775.463	11769.4	5
23568	776.369	3909.66	2
23573	776.243	7711.88	2
23574	776.946	7124.33	4
23579	776.486	8112.31	2
23581	776.386	8493.91	2
23582	776.6	8674.55	2
23590	776.405	10382.2	2
23592	776.209	10554.2	2
23596	775.878	11344.4	2
23608	777.378	6211.78	2
23612	777.152	7282.86	2
23614	777.307	7611.83	2
23617	777.576	9270.52	3
23619	778.251	8443.56	4
23627	777.142	9243.77	2
23631	777.391	9460.14	2
23645	778.409	7454.12	2
23646	777.837	5713.9	2
23647	777.85	5754.52	2
23651	778.661	7722.67	2
23653	777.854	8006	2
23654	778.157	8209.17	2
23658	778.535	8910.88	8
23659	778.648	8913.82	2
23661	778.446	9208.82	2
23665	778.041	10002.9	2
23669	777.891	10721.1	2
23682	779.112	5625.61	2
23684	778.871	5055.85	2
23688	779.362	6464.58	3
23691	779.37	8063.83	2
23706	779.181	9956.22	3
23711	778.913	10578.8	3
23720	780.422	5094.31	2
23726	779.933	7571.65	2
23731	780.006	8170.4	2
23735	780.551	9869.87	3
23743	781.333	11198.6	26
23746	781.377	7717.09	2
23754	781.435	7035.83	3
23757	781.498	6878.63	3
23758	780.921	7186.01	2
23760	781.502	7379.16	2
23765	780.929	7978.04	2
23770	781.544	8703.75	2
23772	780.883	8899.71	2
23776	781.368	9384.34	2
23780	781.516	10157	3
23781	781.389	10452.9	3
23782	781.532	11266.3	3
23784	780.901	12130.2	2
23789	781.887	6548.4	4
23792	782.422	8151.24	2
23797	782.304	8513.04	2
23806	782.528	9697.09	3
23807	782.01	9822.41	3
23808	782.022	9915.47	2
23809	782.579	11068.7	3
23835	783.383	10287.4	2
23836	783.728	10712.6	2
23837	783.468	11589.6	2
23839	782.898	11919.8	2
23844	784.648	4930.14	3
23847	783.9	6108.79	2
23849	784.387	6770	2
23857	783.895	8204.16	3
23859	784.137	8729.48	2
23860	783.869	9558.56	2
23861	783.872	8884.78	4
23873	783.964	11465.3	5
23876	784.776	4931.96	2
23886	785.598	8427.32	2
23888	784.905	8644.34	2
23896	785.072	10112.9	2
23900	785.565	11126.9	3
23906	786.084	3725.32	2
23909	786.129	7263.86	2
23917	786.431	9002.1	4
23920	786.474	9437.02	5
23921	786.079	9448.34	2
23924	785.919	9825.16	2
23925	786.496	9992.68	2
23926	786.563	10286.5	2
23927	786.573	10380.4	2
23939	787.494	6894.25	3
23942	787.369	6921.4	4
23944	787.64	7104.75	2
23948	786.81	7660.48	2
23951	787.404	8495.63	2
23955	787.134	9167.42	2
23960	787.086	10254.5	2
23961	787.408	10232.8	2
23963	787.121	10607.4	2
23965	787.416	10826.9	6
23966	786.872	10990.1	2
23983	787.711	8373.61	2
23989	788.611	9350.87	2
23998	788.232	11269.3	2
23999	788.287	11322.3	2
24005	789.805	5093.19	3
24008	789.409	7344.24	3
24021	789.142	10232.8	2
24025	788.896	11169.3	2
24032	790.138	6453.58	2
24042	790.461	7332.84	2
24046	790.04	7874.31	4
24048	789.901	8190.34	3
24049	790.39	8334.62	2
24054	790.379	8896.09	2
24058	789.719	9226.9	2
24060	789.852	9481.81	3
24064	790.415	9997.64	2
24065	790.24	10092	2
24067	790.425	10887.1	2
24070	790.763	11383.4	3
24078	791.283	6724.43	4
24083	791.664	6878.43	2
24086	791.402	7979.38	2
24090	791.663	8711.63	2
24093	791.427	8999.02	2
24098	791.217	10896.2	2
24100	790.956	11576.7	2
24102	791.838	3704.45	2
24104	792.056	6154.47	2
24108	791.846	6135.62	2
24112	792.431	6944.52	2
24122	792.132	9357.99	3
24127	792.374	10173.7	2
24129	792.335	10572.3	2
24132	791.901	11025.5	3
24133	791.807	12098.8	2
24137	793.436	6149.93	2
24144	793.624	6434.89	2
24155	792.916	9167.84	2
24158	793.317	9750.12	3
24163	793.621	10396.8	3
24165	793.392	10599.8	2
24181	793.873	8393.94	10
24184	793.875	8339.45	2
24186	794.141	8505.29	2
24189	793.773	8966.57	2
24193	794.161	9302.15	2
24196	793.931	9853.83	3
24198	794.287	10129.3	4
24203	793.921	11295.6	2
24204	793.923	11556.6	2
24214	795.655	6804.69	2
24216	795.14	7017.44	2
24218	795.988	7245.67	5
24220	795.168	7529.85	2
24231	795.638	9049.98	3
24236	795.211	9685.7	2
24237	795.221	9976.56	2
24238	795.118	10058.8	3
24239	795.422	10471.4	2
24240	795.395	10582.4	2
24243	795.273	11015.6	2
24246	795.342	11252.6	3
24248	795.032	11447.8	2
24254	796.361	5130.9	2
24255	796.738	6136.93	2
24256	796.364	7566.09	2
24265	796.897	8025.88	2
24268	796.633	8360.06	2
24270	795.855	9045.65	3
24275	796.833	10923.4	2
24283	797.116	5841.08	2
24284	797.151	6070.75	2
24285	797.148	6379.23	2
24287	797.4	7392.59	3
24288	797.384	7518.23	2
24294	797.147	8159.6	2
24298	797.383	10148.5	2
24300	797.383	10331.7	2
24304	797.699	11098.1	7
24306	797.419	11652.9	2
24307	797.409	11782.2	2
24316	798.147	6679.62	2
24320	798.531	7533.88	2
24322	798.674	7987.56	2
24333	797.891	8852.07	2
24340	798.442	9553.17	3
24341	798.404	10729.6	2
24342	797.817	11179.8	2
24347	798.817	4136.37	2
24349	799.247	6839.98	3
24364	799.629	9139.26	2
24365	799.395	9203.13	2
24367	799.633	11253.9	2
24369	799.879	10270.2	26
24370	799.589	11540.5	3
24372	800.392	5372.07	3
24373	799.836	3333.84	2
24378	800.037	7104.55	2
24379	799.882	7171.4	2
24387	800.463	8078.2	2
24392	800.495	9596.83	3
24393	799.876	10811.1	2
24394	800.353	10577.4	2
24395	800.127	10622.7	2
24396	800.147	10872.9	2
24397	799.877	10931.9	2
24400	799.878	11369.2	3
24401	800.162	11565.6	2
24402	800.624	11665.5	3
24405	800.156	11928	2
24416	801.327	6649.8	2
24418	801.576	7006.45	6
24419	801.667	7051.52	2
24424	801.74	7650.36	2
24425	800.878	7792.16	2
24428	800.847	8178.17	2
24429	800.877	8249.15	2
24431	801.365	10371.4	2
24438	801.517	9361.95	2
24439	800.649	9475.97	4
24443	801.441	10471.4	2
24444	801.664	10523.7	2
24450	800.939	11865.4	2
24468	802.618	9239.58	5
24471	802.915	9875.44	2
24474	802.398	10704.5	2
24475	802.422	10824.9	3
24482	803.633	6086.96	2
24487	803.058	6353.25	2
24498	803.595	9032.27	3
24500	803.354	9203.24	2
24501	803.444	9210.17	2
24505	803.513	11449.5	4
24515	803.799	3771.9	2
24518	804.365	5312.88	2
24524	804.397	7497.02	2
24529	804.888	8094.63	2
24530	804.611	8140.88	2
24548	805.148	7240.32	2
24555	804.841	6538.18	2
24556	805.407	7098.23	4
24561	804.772	8526.73	4
24580	806.387	7562.13	2
24582	806.12	8002.83	2
24585	806.491	9280.88	5
24586	805.952	9495.5	2
24597	806.808	7785.89	3
24598	807.759	7481.02	2
24599	807.264	7721.15	2
24603	807.348	8446.57	3
24604	808.211	8500.41	3
24605	807.633	8715.02	2
24606	806.753	8959.35	2
24608	807.876	9036.95	24
24610	807.589	9507.77	2
24612	807.718	9436.45	3
24613	807.67	9966.62	2
24621	807.179	12298.9	3
24625	808.158	6266.34	2
24628	807.686	7347.29	2
24636	807.875	9781.29	2
24637	807.872	10024.2	2
24638	808.411	10080.5	3
24640	808.399	10218	2
24641	808.423	10299.2	2
24642	808.6	10384	2
24643	808.478	10697.6	15
24647	807.874	11348	2
24654	808.891	3503.29	5
24662	809.124	6497.55	2
24666	809.918	7005.51	2
24668	808.925	7403.26	2
24670	809.419	7851.04	2
24674	808.895	8188.39	2
24693	809.908	7140.98	3
24697	809.961	8137.33	2
24702	810.161	8745.6	2
24709	810.356	11717	2
24714	810.805	3858.43	2
24721	811.654	8664.69	2
24725	810.872	9195.89	2
24728	811.401	9392.92	2
24733	811.418	9900.91	2
24734	810.865	10103.3	2
24747	812.71	5635.74	4
24750	812.327	6457.3	8
24754	812.595	7577.86	2
24758	812.395	7966.44	2
24759	811.82	8049.63	3
24761	812.125	8519.72	2
24765	811.91	9226.03	3
24766	812.512	8414.73	3
24768	811.963	9804.98	3
24772	812.5	10801.4	2
24773	811.972	11188	2
24779	813.04	2446.58	2
24781	813.34	4858.94	2
24788	813.637	7758.61	2
24794	812.939	9440.15	2
24795	812.907	9973.38	2
24796	813.412	10054.6	2
24813	813.985	8391.17	4
24814	814.656	7475.2	4
24818	814.434	10150.9	3
24822	814.373	10753.9	2
24833	815.641	6605.66	2
24834	815.694	6710.03	2
24841	815.383	8635.73	2
24846	814.929	8938.31	3
24860	816.123	7829.43	3
24861	815.87	7899.09	2
24862	816.182	8326.61	2
24867	816.472	9857.15	19
24868	816.733	9588.63	3
24869	816.667	9956.76	2
24870	816.438	9965.92	2
24874	816.417	10784.9	2
24887	817.067	7892.78	3
24889	817.135	8136.55	2
24898	817.619	10201.3	3
24902	817.638	10847.8	2
24905	817.837	4869.12	2
24906	818.42	4260.76	4
24907	818.43	5683.68	2
24911	818.433	6838.52	2
24912	818.417	7001.94	2
24913	818.115	7132.45	2
24914	818.026	7740.44	4
24915	818.116	7916.24	2
24916	818.187	10235.9	2
24920	817.861	9116.12	2
24924	818.418	10426	2
24926	818.244	10783.8	2
24927	818.495	10891.7	2
24929	819.405	5251.95	2
24930	818.796	3713.66	2
24932	819.531	4681.02	2
24933	819.266	6476	2
24939	819.366	7334.99	2
24943	819.414	7661.2	2
24945	819.103	8425.9	2
24949	819.561	9422.24	4
24954	819.033	9801.07	6
24955	819.1	10039.4	2
24957	819.132	10128.1	2
24967	819.942	6727.78	2
24973	820.404	7736.82	2
24976	819.93	8694.96	6
24982	819.945	10809.9	2
24989	821.13	6842.33	2
24996	820.907	9135.26	2
24999	821.421	11106	2
25000	821.668	8232.5	2
25004	821.766	11258.7	3
25007	822.732	4989.85	3
25011	822.389	7074.9	2
25013	822.382	7771.56	2
25020	822.205	8891.62	3
25024	822.137	9467.97	2
25029	821.92	9981.7	2
25030	822.096	10038.8	2
25034	822.122	10435.7	2
25036	822.061	10631.8	2
25038	822.402	11315.6	2
25039	821.933	11596.7	2
25040	822.101	12011	2
25041	821.871	12075.5	2
25053	822.648	8512.05	2
25067	823.152	11063.1	4
25074	824.588	6700.2	2
25078	824.388	7426.49	2
25081	824.417	8724.63	2
25082	824.401	9270.2	2
25087	823.701	10197.9	2
25089	824.651	10576.2	3
25090	824.371	10773.5	2
25093	823.872	11539.3	2
25097	824.819	4136.82	2
25099	825.235	4715.15	2
25101	825.178	7419.66	2
25103	824.871	5435.68	2
25107	824.764	6045.21	2
25109	825.43	6337.02	2
25112	825.584	7013.08	3
25120	825.053	8078.96	14
25124	824.981	8798.92	2
25125	824.908	8839.51	2
25131	824.741	10118	2
25144	826.124	6885.06	3
25146	825.917	7284.03	2
25149	825.892	8610.13	2
25150	825.923	8599.07	2
25154	825.957	9552.68	2
25156	826.385	10112.5	3
25158	825.764	10909.2	2
25168	826.906	8016.35	2
25172	827.42	8775.47	3
25174	827.082	9317.1	2
25178	827.424	10431.1	4
25180	827.385	9926.48	3
25182	827.121	10141.9	2
25194	827.955	7177.26	2
25196	828.096	7567.3	2
25200	828.403	8265.63	2
25201	828.589	8443.74	2
25209	828.581	9399.87	2
25215	829.413	5148.75	2
25216	829.618	6799.5	3
25219	828.816	7094.84	2
25231	829.401	9825.79	2
25237	828.938	10594.9	2
25238	828.964	10701.5	4
25243	830.259	4382.39	2
25244	830.662	5801.67	2
25247	830.623	6488.13	7
25249	830.526	6451.56	3
25251	830.551	6906.42	2
25264	829.721	10201.4	2
25266	830.411	10473.2	2
25267	829.741	10822.4	2
25268	830.388	10885	2
25269	829.936	11089.3	2
25270	831.112	4598.59	2
25274	831.417	6139.08	2
25275	831.408	7355.58	2
25276	830.884	6566.53	2
25280	831.2	6893.96	2
25292	831.443	8887.23	2
25295	831.18	10021.3	2
25305	831.269	11602.1	2
25307	831.469	12260.7	3
25319	832.404	7928.73	2
25322	832.404	8701.2	4
25329	831.718	9558.43	3
25332	832.073	10120.4	2
25333	832.74	10151.7	2
25337	832.4	11409	2
25340	832.817	2721.83	2
25343	833.628	6864.51	3
25344	832.685	7789.04	2
25353	833.435	11362.4	2
25355	834.504	4576.1	2
25357	834.394	5643.98	2
25367	834.565	6579.37	2
25368	834.822	8073.69	4
25369	834.726	8148.04	2
25371	834.436	8464.09	2
25373	834.404	8971.81	2
25374	834.19	8032.98	3
25376	833.927	9239.85	3
25380	834.416	9914.24	2
25389	835.4	2123.38	2
25398	835	7776.91	3
25400	834.878	8314.58	2
25401	835.269	8733.74	2
25416	835.955	7473.41	2
25430	835.94	10401.2	2
25441	836.956	6903.07	2
25443	837.576	7435.07	4
25444	837.043	8079.06	2
25448	837.44	8535.72	2
25456	836.944	10021.2	2
25458	836.721	10821.3	2
25465	837.908	4196.76	2
25468	838.417	7075.66	2
25476	838.281	8173.73	4
25480	838.601	9168.24	6
25482	838.385	9380.74	3
25484	838.144	9472.51	2
25485	837.906	9554.61	3
25487	838.597	10100.8	3
25488	838.643	10789.2	2
25490	838.491	11410	2
25507	839.417	8352.54	2
25513	838.871	9630.97	2
25517	838.92	10681.4	4
25530	840.034	6772.47	2
25531	840.178	6267.42	2
25540	840.014	8394.66	3
25542	840.393	9382.68	2
25546	839.956	10273.7	2
25547	840.434	10518.1	2
25549	840.452	10862	3
25556	841.193	8041.81	2
25560	841.427	7943.31	2
25562	841.751	8989.63	2
25564	841.432	9579.91	2
25566	841.45	9702.62	2
25577	842.457	9022.52	2
25594	842.526	10290.5	3
25597	842.438	10617	2
25603	842.747	4557.44	2
25612	842.942	8070.05	2
25618	843.012	9222.93	2
25621	843.54	10564.1	2
25622	843.713	10648.4	2
25624	843.574	11102.6	2
25625	843.391	11270.8	2
25628	843.84	4858.46	2
25636	844.553	8838.91	3
25650	844.402	9478.07	2
25668	844.918	11402.2	2
25670	846.409	4905.55	2
25685	846.26	8906.04	2
25687	845.908	9771.14	2
25693	846.102	10861.3	2
25694	845.959	11047	2
25695	846.434	11192.6	2
25697	845.936	11603.6	2
25698	846.07	11835.1	2
25703	847.226	6741.76	2
25704	847.412	8345.36	2
25705	847.473	5853.46	2
25706	847.467	5895.28	2
25708	848.051	5974.45	4
25714	847.61	8526.5	2
25715	846.95	9170.56	2
25717	846.914	9492.58	2
25719	847.712	9830.57	2
25721	846.957	9951.65	2
25731	846.896	11508.7	2
25735	848.416	6406.82	2
25736	848.447	5848.4	2
25738	848.638	7896.39	2
25741	848.67	7348.83	2
25742	848.377	9064.11	4
25743	848.378	9291.05	7
25745	848.378	9570.32	3
25747	848.517	10162.7	3
25748	848.486	10318.5	2
25751	848.164	10581.3	2
25758	849.165	7602.45	8
25760	849.143	8110.03	2
25774	849.938	7239.74	2
25775	850.944	9240.99	2
25778	850.489	7780.8	2
25779	849.919	8203.88	2
25786	850.654	9779.44	2
25788	850.032	9908.53	2
25789	849.895	10067.5	3
25790	850.435	10254.1	2
25792	849.909	10419.1	2
25794	850.198	10730.2	2
25802	851.185	7765.35	3
25804	851.656	7944.13	2
25809	851.176	8775.01	2
25810	851.448	9452.83	7
25812	851.443	9124	2
25821	852.4	4670.17	3
25828	851.944	7594.1	3
25830	852.41	8205.48	3
25835	852.419	9081.67	2
25847	852.505	11731.4	3
25852	853.173	6852.5	2
25855	853.668	8087.17	2
25863	853.437	7881.33	3
25865	853.454	8645.33	2
25868	852.904	9402.19	2
25871	852.937	9667.37	2
25874	852.915	11176.8	2
25875	852.9	10427.6	2
25877	852.916	11357.6	2
25890	853.909	8955.49	3
25893	854.201	9953.87	2
25902	855.72	4911.82	2
25903	855.602	5351.1	2
25905	854.884	6375.31	2
25912	855.598	7558.66	2
25913	855.392	8067.95	2
25914	854.912	8038.66	2
25919	855.413	9359.79	2
25923	855.134	8430.59	2
25930	856.268	4566.42	3
25932	856.153	5844.9	2
25934	855.946	6486.06	2
25937	856.49	8208.39	13
25940	856.405	8556.73	3
25966	857.386	6577.45	2
25968	857.444	6944.24	2
25972	857.577	8089.26	3
25973	857.41	8406.22	2
25977	857.942	9642.63	2
25978	857.611	9620.36	2
25982	857.347	10835.3	3
25984	856.917	12333.7	2
25992	858.395	7150.9	3
26004	858.657	9659.28	2
26005	858.457	9771.27	2
26010	858.191	10119.5	2
26011	857.931	10359.1	2
26016	859.19	7693.83	2
26018	859.458	6246.7	2
26023	859.355	8179.79	2
26033	859.476	10952.5	2
26045	860.168	9056.5	2
26047	859.764	8382.11	2
26058	860.191	11039.6	2
26077	861.046	8265.47	2
26080	861.615	8422.87	2
26091	861.384	9850.36	3
26099	860.974	11175.1	2
26100	861.091	11421	2
26107	862.182	7575.71	3
26114	862.173	10181.7	2
26119	862.442	10687.3	2
26125	862.909	6349.85	2
26127	862.981	7270.54	2
26132	862.972	8383.76	2
26145	864.201	7123.24	4
26147	864.503	6809.9	4
26149	864.152	9013.52	2
26155	864.524	8117.09	2
26159	864.483	8737.45	2
26165	863.97	9722.95	2
26173	865.936	8613.47	4
26175	865.645	7107.76	2
26177	865.436	7703.12	2
26179	865.581	8282.04	2
26187	865.407	10466.7	2
26189	865.428	10181.6	2
26190	865.601	10227.7	2
26199	866.266	7427.09	2
26203	865.964	7950.51	3
26206	866.011	8344.83	2
26207	866.426	8563.78	2
26210	865.96	8889.27	2
26216	866.097	10127.4	2
26218	865.928	10335.8	2
26225	866.402	11518.6	2
26226	866.413	12228.5	2
26230	866.897	3352.99	2
26231	867.168	7192.05	4
26237	867.443	7107.34	2
26239	867.426	7502.46	2
26241	867.716	7786.48	2
26244	867.749	8444.62	3
26254	866.96	11293.7	2
26260	868.378	5480.42	2
26268	868.475	7696.39	2
26271	868.521	8275.18	3
26280	868.198	10095.8	2
26284	867.965	10937.6	2
26289	869.4	5958.23	2
26299	868.938	10258.8	2
26313	870.075	9362.12	2
26317	870.44	8742.55	2
26320	870.632	9065.52	3
26322	870.76	8754.91	2
26325	869.821	9900.62	4
26329	870.404	10887.5	2
26333	870.238	12189.8	2
26356	870.98	9785.44	2
26357	870.951	10329.9	2
26358	870.956	10585.3	2
26365	872.223	7557.56	3
26367	872.188	9676.75	2
26368	872.481	9995.29	3
26369	872.129	10551.5	2
26373	872.469	10107.9	2
26375	872.468	10189.2	2
26379	873.169	5866.07	2
26382	872.963	8505.1	2
26388	874.625	5718	2
26390	873.67	6699.56	2
26393	873.821	8631.14	2
26395	874.43	8813.41	2
26396	874.417	8895.4	2
26397	873.886	8973.33	2
26399	874.11	9372.08	2
26400	874.44	9442	2
26406	874.307	10946.6	2
26414	875.126	8261.28	2
26419	875.126	9502.88	2
26429	875.696	9981.7	2
26431	875.07	10517.3	2
26436	874.929	11348.5	5
26437	875.282	11755.6	2
26442	876.845	7999.15	3
26446	876.076	7695.09	2
26447	875.975	7667.28	2
26456	876.154	9128.31	2
26462	876.442	10322.7	2
26464	876.375	9753.5	3
26467	876.922	5353.13	2
26475	877.679	8728.93	2
26476	877.413	9545.12	2
26479	876.895	9000.29	2
26493	878.444	6937.48	3
26499	878.301	8385.45	3
26504	878.473	10182.7	2
26505	878.421	11097.1	2
26506	877.917	11244.1	2
26507	877.921	12237.1	10
26510	879.227	6874.07	2
26513	879.104	7738.95	3
26525	879.737	10115.7	2
26528	878.986	11650.9	8
26529	879.582	11727.9	4
26534	879.957	6250.14	2
26556	881.264	8490.42	3
26558	881.661	8700.28	3
26561	881.56	10274.9	2
26562	880.775	10755.8	2
26565	880.986	11890.8	2
26572	882.473	7365.43	2
26574	881.946	8120.56	2
26575	881.906	8195.91	2
26577	882.402	8440.65	2
26578	882.055	8509.92	2
26579	882.584	8898.11	2
26580	882.459	9006.69	2
26582	881.953	9833.62	2
26583	881.751	10325.1	2
26585	882.265	10671.4	2
26589	883.316	4566.59	3
26590	882.78	4846.33	2
26601	882.998	8783.53	4
26604	883.706	9757.87	2
26610	884.313	4904.61	2
26615	884.664	6581.94	2
26619	883.927	7196.49	2
26622	883.978	7572.08	3
26626	884.364	7882.32	3
26633	884.445	9256.1	2
26637	883.915	9850.99	2
26641	884.182	10323.5	2
26642	884.278	11122.1	2
26656	885.451	8113.27	2
26659	885.687	9669.33	2
26664	886	11655.9	6
26665	884.942	10949.5	2
26666	884.989	11808.1	2
26680	886.48	8800.38	10
26685	886.74	10099.2	3
26696	887.287	7245.62	2
26700	886.909	8000.85	2
26704	887.465	9042.12	3
26708	887.776	9647.85	2
26713	887.892	3969.02	2
26715	888.127	4219.54	4
26726	887.906	9744.42	2
26727	887.906	9827.44	2
26730	887.93	10585.3	2
26745	888.858	10172.8	2
26747	888.875	11125.2	5
26748	888.937	11752	2
26750	889.164	12401.9	2
26754	889.998	8009.49	2
26758	890.479	9702.38	2
26763	889.935	11339.7	4
26771	891.513	6249.25	3
26781	891.528	8970.57	15
26783	891.476	9575.18	2
26790	890.981	10725.8	5
26791	891.561	10828.5	3
26798	892.781	7123.35	3
26801	892.147	7667.5	3
26802	892.581	8824.71	3
26803	892.706	7848.3	2
26804	892.591	8174.82	3
26807	892.163	8414.58	2
26809	892.431	8637.78	2
26814	892.323	11210.7	2
26815	891.98	11735.7	2
26822	893.443	9229.21	2
26823	892.953	7898.32	3
26826	893.083	9075.7	2
26829	893.169	10134.3	2
26833	892.986	11991.5	2
26838	893.911	5088.97	2
26842	894.289	7528.62	2
26845	894.091	7727.38	2
26846	894.427	8560.93	2
26852	894.436	11573.3	2
26856	895.468	5457.86	2
26857	895.018	7930.5	2
26861	895.11	6993.63	2
26863	895.585	7280.19	4
26871	895.423	10711.4	2
26882	895.935	8663.26	3
26883	896.175	8932.93	2
26887	896.459	9926.45	2
26892	896.642	11727.1	2
26895	896.998	7592.39	3
26896	897.111	7571.56	2
26901	897.67	8765	2
26903	897.428	9271.09	4
26907	897.187	9548.32	2
26908	897.683	9637.06	4
26915	898.218	10654.5	3
26929	898.772	8556.09	3
26938	899.428	7358.55	4
26941	898.866	8609.97	2
26947	898.772	10354.9	2
26955	899.678	11296.2	2
26956	898.969	11822.2	2
26960	900.126	8327.9	3
26966	900.428	9703.43	8
26973	900.597	11226.8	3
26974	900.117	11593	2
26977	900.934	3740.96	2
26982	901.477	7845.81	2
26986	900.944	8196.3	2
27003	902.168	8450.9	2
27005	902.421	8724.92	2
27008	902.637	9296.07	3
27013	902.676	10588.9	2
27014	902.267	11102.6	2
27021	903.678	7243.93	2
27027	903.124	7885.44	2
27034	903.443	10036.2	2
27046	904.442	8869.13	2
27049	903.956	9308.39	2
27053	903.963	10175.1	2
27056	903.912	10602.7	2
27057	904.045	10863.5	8
27058	904.958	6727.25	2
27059	905.217	7829.33	2
27061	904.763	7932.45	2
27062	905.3	8082.38	3
27063	905.606	8236.06	2
27068	905.68	9343.92	2
27073	905.43	9584.89	2
27075	905.496	9802.38	3
27082	905.528	12220.1	6
27085	905.614	7809.16	2
27090	906.66	8455.63	2
27093	906.645	8599.24	2
27094	906.452	9510.59	2
27095	906.664	8653.83	2
27096	905.908	8822.33	2
27100	906.103	9481.06	2
27102	906.6	10355.2	2
27104	906.415	11635.7	2
27107	906.137	12325.2	2
27110	907.783	4313.59	3
27111	907.559	5105.02	2
27114	906.878	6534.06	2
27115	906.766	7265.94	2
27122	906.865	8740.02	3
27123	907.108	8844.61	2
27126	907.543	10016.2	3
27151	908.103	11021.2	2
27156	907.904	11526.5	2
27157	908.467	11569.5	2
27165	909.957	8141.61	2
27171	908.962	10129.6	2
27174	908.856	12204.2	5
27177	910.665	6976.02	2
27181	910.468	7591.08	2
27182	910.471	7698.62	2
27190	910.004	10199	2
27194	911.203	4404.17	2
27201	911.099	8282.37	2
27206	911.425	9994.46	2
27210	911.697	10642.9	2
27217	912.271	5289.56	2
27218	912.494	7609.79	2
27225	911.901	8869.09	3
27227	912.42	9265.69	2
27239	913.389	8759.82	3
27240	913.366	9129.41	4
27245	913.213	10870.3	2
27247	913.361	11964.5	2
27248	913.36	12085.8	4
27252	914.456	7029.64	2
27253	914.715	6650.31	2
27268	914.802	7696.29	4
27269	914.435	10217.5	2
27282	914.865	6722.01	2
27287	915.443	7836.1	2
27288	915.382	7900.72	3
27289	915.307	7965.47	2
27292	915.701	8487.84	2
27294	915.081	8565.77	3
27298	915.473	9738.71	3
27300	915.48	10397.2	3
27301	915.737	10518.2	2
27313	916.465	9019.1	2
27314	916.961	9364.1	2
27322	916.465	10862.4	3
27323	915.978	11378	7
27325	916.488	11420.1	2
27328	917.148	4669.38	2
27333	917.695	7120.79	2
27341	917.474	9898.83	4
27344	916.853	12128.6	4
27347	918.388	7115.54	4
27349	918.475	6482.84	2
27355	918.704	7624.98	2
27357	918.118	9169.29	4
27361	918.691	10070.1	2
27362	917.996	10218.9	3
27365	919.363	3492.05	2
27375	919.278	8166.61	7
27376	919.214	8453.57	2
27390	920.461	8102.69	2
27391	920.268	8398.88	2
27393	920.642	9094.92	2
27397	920.634	9406.37	3
27401	920.75	8241.73	3
27404	920.24	11245.6	2
27408	920.997	5167.81	2
27426	921.988	5858.32	2
27427	921.94	5921.15	2
27428	922.444	6407.85	2
27429	922.413	6681.08	2
27435	921.898	8273.22	2
27439	922.278	9229.57	2
27443	922.592	10311	2
27444	921.785	10703.5	2
27446	922.203	11957.6	2
27461	922.962	9958.39	2
27462	923.036	10458.4	15
27463	923.1	10639.1	2
27465	923.487	11193.4	2
27466	923.447	12134.7	2
27469	923.794	4851.19	3
27471	923.937	5610.88	2
27476	924.811	7664.32	3
27478	924.592	8805.71	2
27480	924.387	9289.53	2
27489	924.96	7314.33	2
27490	924.948	7408.96	2
27491	925.208	7742.86	2
27492	925.71	8703.78	2
27497	925.617	9575.91	3
27503	926.382	6805.04	2
27504	926.713	8245	2
27509	926.642	7558.55	2
27512	926.299	8906.74	2
27525	926.923	6847.98	4
27530	927.428	9345.64	2
27533	927.011	11220.4	2
27535	927.922	3683.86	8
27539	928.672	6764.12	2
27543	928.656	7242.39	2
27544	928.456	9293.29	2
27549	928.025	10200.6	4
27554	928	10954.6	2
27559	929.401	5422.3	2
27573	929.098	9469.17	2
27585	930.646	9040.86	3
27599	931.214	6008.82	2
27601	931.212	7213.62	2
27603	931.267	8134.43	2
27611	931.215	10645.8	2
27613	931.455	11298.9	3
27616	932.228	7685.91	2
27617	931.869	9340.27	2
27630	933.185	6454.97	2
27633	933.359	7272.07	2
27637	932.511	8909.34	2
27639	933.172	9597.86	4
27647	934.417	6649.93	3
27648	934.469	7128.88	2
27650	934.428	9023.56	2
27651	934.667	8230.08	2
27653	934.19	8587.1	2
27656	934.203	9159.58	2
27664	933.943	10900.5	2
27665	933.953	10975.4	2
27667	934.129	11412.9	2
27668	934.418	11758.3	3
27674	935.914	7782.39	3
27686	936.027	7512.7	2
27691	936.051	7832.54	2
27693	935.941	7974.67	2
27698	936.266	8739.47	2
27701	935.888	9343.77	2
27710	937.166	9200.5	2
27714	936.962	8621.15	2
27719	936.949	9826.2	2
27723	936.502	10665.4	2
27730	938.718	7977.77	2
27734	938.451	9622.37	2
27735	938.607	10366	10
27744	938.969	7938.69	2
27746	939.711	8607.99	4
27747	939.484	8797.05	2
27750	939.54	9426.61	6
27751	938.936	10724.3	2
27752	940.487	5178.67	2
27754	939.977	6632.17	2
27764	939.986	8861.68	2
27766	939.501	10515.6	2
27770	940.989	5516.84	2
27773	940.896	8114.72	2
27775	941.476	8736.67	2
27776	940.947	8510.26	2
27778	941.7	10050	2
27783	941.518	6556.03	2
27788	941.981	8387.12	2
27793	942.11	9183.05	2
27794	942.253	9823.22	2
27796	942.701	10068.7	2
27797	942.877	10103.4	3
27798	942.13	10606.7	6
27801	942.449	10744.4	2
27805	942.892	7735.96	2
27807	943.435	7842.45	2
27814	943.315	10720.4	2
27815	943.471	11089.9	2
27818	944.495	6745.78	4
27819	944.497	7067.74	2
27828	944.318	9648.06	2
27829	943.818	9708.85	2
27840	945.474	8599.44	2
27845	945.119	9909.86	2
27848	945.745	10272.4	2
27856	946.206	7845.04	2
27860	946.745	9736.89	2
27861	945.987	9983.29	2
27865	945.788	11169.9	2
27870	946.917	6784.12	2
27880	947.063	11542.7	2
27892	947.976	10774.5	2
27893	948.492	11178.4	2
27898	948.943	7048.16	2
27906	949.447	9917.09	3
27907	949.661	10396.6	2
27909	950.026	4465.09	2
27911	950.112	8755.52	3
27915	950.192	9114.08	2
27918	950.763	10107.8	3
27919	949.935	10211.7	2
27920	950.5	10878.3	3
27921	950.499	11218.8	2
27932	951.457	9577.07	2
27935	951.494	10037.9	2
27941	952.006	8388.35	2
27946	952.428	10639.8	2
27950	952.941	7550.47	2
27956	953.536	9928.31	6
27957	953.454	9699.51	2
27963	954.449	7823.33	2
27967	953.818	9866.28	2
27973	955.635	6598.83	2
27996	956.167	10562.3	2
28007	958.714	7756.88	2
28008	957.826	8857.82	2
28010	958.648	9071.49	3
28012	958.578	11109.6	4
28019	958.868	8331.7	2
28028	960.482	5652.34	3
28033	960.163	8092.14	2
28036	960.087	9417.13	2
28038	960.018	8895.8	2
28040	959.688	11717.3	2
28044	961.145	8673.07	2
28047	961.245	8373	2
28052	961.641	9822.74	2
28053	961.023	10118.7	2
28054	961.237	10231	3
28061	962.182	7138.12	2
28068	962.38	8760.01	3
28072	961.517	9931.29	2
28076	962.656	11002	2
28084	962.97	8379.19	2
28096	963.515	7510.85	2
28097	964.474	8730.75	2
28098	963.805	8589.8	2
28107	965.732	9603.24	2
28111	965.476	11273.9	2
28119	965.763	7630.54	2
28125	966.49	9455.95	2
28130	967.083	7700.45	2
28134	967.717	8651.37	2
28136	966.949	8750.44	2
28145	968.73	8316.14	2
28154	968.484	9894.19	2
28155	968.661	10081.9	2
28162	969.125	8712.96	2
28167	970.463	4567.91	2
28177	970.61	9325.95	2
28179	970.473	9987.05	2
28187	971.082	6562.15	2
28193	970.866	8867.24	2
28194	971.218	9118.5	2
28195	971.23	10221.9	2
28196	970.933	10086.8	2
28207	971.966	8427.51	2
28218	972.583	11332.2	4
28223	972.674	9685.93	2
28230	974.02	8312.76	2
28231	974.484	9056.89	2
28232	974.161	9318.98	2
28235	974.016	9730.81	2
28247	975.477	9172.22	2
28248	974.912	9391.86	3
28251	975.003	11593.3	4
28253	975.982	7978.74	2
28257	976.622	7653.67	2
28259	976.79	7738.4	2
28264	975.537	9466.88	2
28266	975.931	9819.63	2
28273	977.652	10615.4	2
28281	978.747	9003.61	2
28286	979.19	8103.86	2
28296	980.002	7730.03	2
28300	979.975	9507.76	2
28302	980.45	10189.6	3
28309	981.792	7097.62	2
28310	980.519	10001.5	2
28314	980.96	9670.17	6
28326	981.519	8833.32	4
28327	981.959	9159.91	2
28341	984.241	11075.4	2
28342	985.472	4717.24	2
28346	985.006	8113.45	3
28347	984.788	9028.23	2
28348	985.745	9648.24	2
28351	985.291	10047.4	2
28352	984.79	10109.5	2
28358	986.747	7142.95	2
28373	988.443	8231.22	3
28378	988.522	6650.61	2
28381	989.056	8359.45	5
28388	988.965	10206.4	2
28390	991.153	4969.37	3
28397	990.202	8998.52	2
28405	990.633	10067.7	2
28413	990.967	8362.39	3
28414	991.229	9787.56	2
28422	991.997	9622.36	2
28427	993.472	6079.14	2
28429	993.231	7883.05	2
28430	992.779	10072.9	2
28433	993.982	9082.18	2
28438	994.528	7706.59	2
28451	996.247	9284.69	2
28457	996.986	5985.19	2
28467	999.599	3121.2	3
28472	999.126	8831.4	3
28473	999.179	8954.71	2
28486	1000.95	3443.82	2
28490	1001.17	9660.09	4
28491	1001.48	10111.5	2
28494	1001.55	8429.88	2
28495	1002.18	9638.42	2
28497	1003.44	5621.16	2
28499	1003.42	7281.79	2
28502	1003.4	8213.39	2
28504	1003.25	8954.05	2
28505	1002.93	10068.1	2
28511	1003.92	7162.83	2
28515	1004.45	11447.8	5
28526	1006.51	7565.72	4
28529	1006.99	9224.67	2
28535	1007.98	8955.71	2
28539	1008.5	10933.7	2
28540	1007.51	11577.4	2
28546	1008.8	7380.83	2
28549	1009.28	10113.9	2
28553	1010.61	4859.7	3
28555	1010.07	7249.95	3
28557	1009.52	9065.8	2
28561	1011.76	6923.74	2
28566	1010.54	9602.87	4
28568	1011.52	5485.43	2
28584	1012.52	10865.2	2
28588	1014.12	9854.39	2
28593	1015.85	8705.39	2
28601	1017.12	7035.75	2
28624	1020.6	5212.87	2
28632	1019.68	11674.3	3
28638	1020.98	6993.22	3
28639	1021.03	10318.6	6
28645	1022	8924.18	2
28647	1021.77	9025.37	2
28649	1021.53	9303.51	2
28650	1022.75	9924.85	2
28656	1022.5	9925.04	2
28657	1024	6769.9	2
28660	1024.18	7966.35	2
28661	1023.55	11281.3	39
28662	1023.72	11128.1	3
28666	1024.77	6086.31	2
28672	1025.68	9453.29	3
28675	1024.79	10105	2
28680	1026.36	8111.09	2
28682	1026.11	8211.99	2
28685	1025.77	10325.6	2
28690	1027.69	10610.7	2
28700	1029.54	7265.74	4
28703	1028.85	8469.42	3
28704	1029.01	8921.88	2
28706	1029.14	10632	7
28709	1029.76	5272.44	2
28714	1029.71	9243.39	2
28715	1030.47	9880.22	2
28716	1029.96	10015.9	3
28718	1030.48	11638.3	2
28721	1030.99	9818.78	2
28725	1031.74	7254.65	2
28727	1031.98	8007.99	2
28734	1032.01	11410.4	2
28741	1034.16	8557.39	3
28742	1034.49	8748.04	2
28745	1034.93	8647.99	2
28750	1034.99	11445.5	3
28754	1035.93	8599.35	2
28760	1037.74	7549.64	2
28761	1037.76	8732.26	3
28764	1037.02	10722	2
28766	1038.5	7319.09	3
28776	1039.26	8537.09	2
28785	1040.49	9969.03	2
28788	1040.17	10650.3	3
28791	1041.5	7577.06	2
28795	1040.84	9840.03	2
28800	1041.36	10339.4	3
28801	1042.36	6736.24	4
28802	1042.15	7780.32	3
28805	1042.92	6957.08	2
28810	1042.99	10788.4	4
28813	1045.03	8192.97	2
28815	1045.76	4347.04	2
28817	1045.97	6184.91	2
28820	1046.53	8746.36	2
28823	1047.67	5661	2
28825	1047.73	9483.67	2
28835	1048.27	10772.2	2
28848	1051.3	7518.03	3
28849	1051.02	7640.19	3
28853	1052.53	7777.35	2
28855	1052.74	9943.86	3
28861	1053.79	9102.11	2
28870	1055.54	5288.97	2
28894	1059.01	11818.3	2
28897	1060.22	9940.44	2
28900	1059.53	11008.5	2
28905	1061.22	10791.1	3
28907	1061.95	9040.46	2
28909	1063.3	8735.05	2
28913	1062.99	9875.87	3
28925	1065.56	7525.28	2
28927	1066.33	10049.3	2
28934	1067.27	10367.4	2
28937	1067.54	7388.27	3
28939	1067.52	7916.46	2
28940	1067.64	9453.05	3
28948	1069.04	7843.19	3
28951	1070.11	8249.47	3
28956	1070.28	10145.9	2
28957	1070.07	10836.5	2
28969	1073.33	7929.46	2
28980	1073.78	8746.68	2
28983	1074.01	11834	2
28986	1074.88	7529.2	2
28987	1075.27	8774.63	2
28991	1075.7	9099.37	3
28992	1076.08	9186.64	2
28993	1075.51	11601.3	2
28997	1076.78	8850.42	2
29001	1076.59	10382.9	5
29002	1077.25	10990.6	2
29004	1078.03	8959.55	3
29014	1078.58	10100.6	2
29022	1081.29	7835.61	2
29024	1081.23	11044.2	2
29028	1081.7	10060.3	3
29030	1083.53	7622.93	2
29034	1084.21	10335.4	2
29037	1085.04	9222.29	3
29039	1085.05	10140.7	2
29056	1088.8	8518.23	2
29058	1089.38	9957.37	2
29064	1089.54	10271.8	2
29065	1090.04	10242.2	2
29070	1092.1	9761.9	2
29072	1093.34	6574.57	2
29074	1093.29	7772.08	2
29077	1092.69	10064.6	2
29078	1092.86	10107	2
29080	1095.28	9622.95	3
29081	1095.08	10404	2
29082	1095.08	10527.8	2
29089	1096.86	8503.37	3
29091	1096.66	11689.5	4
29096	1098.06	10875	2
29098	1099.43	7495.8	3
29105	1100.78	8754.66	2
29106	1101.63	10072.7	2
29107	1101.73	10577.6	2
29108	1101.01	11386	2
29124	1105.32	9573.28	2
29129	1106.06	8377.8	2
29134	1105.76	10038	2
29149	1110.07	9345.71	2
29162	1113.18	9651.57	2
29164	1112.69	10811.3	2
29190	1119.05	7647.69	2
29191	1119.56	7509.55	3
29196	1119.81	8000.7	2
29200	1121.05	11034.3	2
29205	1122.01	9747.89	2
29207	1123.49	4554.83	2
29208	1123.91	5277.28	3
29223	1127.67	8545.32	2
29235	1131.67	9365.54	2
29239	1131.56	10220.7	3
29241	1133.05	11212.1	2
29242	1133.77	4933.15	2
29246	1135.3	9328.99	11
29253	1138.28	8281.42	2
29255	1138.24	10134.8	2
29257	1139.06	9674.71	2
29258	1140.29	7046.99	2
29259	1140.2	8196.61	2
29261	1139.96	10572.1	3
29263	1141.46	4564.73	2
29268	1141.54	8467.14	3
29277	1145.8	8125.64	2
29278	1146.19	9825.25	2
29285	1149.54	6912.23	2
29289	1150.79	7826.72	2
29290	1151.3	8273.74	2
29295	1153.5	9916.53	2
29298	1155.21	8648.13	2
29302	1155.59	10368	2
29309	1157.6	11407.7	2
29311	1159.02	9278.31	3
29314	1160.3	8336.75	3
29316	1162.18	7431.36	2
29320	1162.59	11715.3	2
29322	1164.47	7204.41	3
29325	1164.37	8672.59	2
29327	1164.31	10568	2
29337	1173.28	11089.6	2
29339	1173.99	9900.17	2
29340	1174.51	6963.81	2
29341	1175.58	7121.22	2
29343	1174.9	9777.66	2
29345	1176.52	7906.36	2
29348	1176.99	11616.4	2
29354	1179.02	8993.96	5
29356	1180.44	12231.3	2
29360	1181.68	8728.36	3
29363	1184.24	9243.01	3
29366	1184.74	8748.45	2
29370	1187.02	6104.26	3
29372	1188.52	7332.64	2
29373	1190.22	11622.5	2
29379	1192.08	10048.6	2
29389	1196.92	10036.1	3
29401	1209.63	5282.39	3
29404	1209.79	7924.86	2
29405	1210.12	8437.35	2
29406	1209.56	9258.65	2
29408	1210.52	6645.32	2
29412	1210.79	10097.6	2
29419	1215.31	5262.39	3
29423	1217.24	9279.99	2
29425	1217.71	6373.98	3
29426	1218.09	7375.36	2
29439	1221.16	4564.35	2
29441	1221.31	11182	2
29455	1228.91	8389.5	2
29457	1230.78	9957.37	2
29461	1236.04	10107.1	2
29469	1239.61	9349.2	2
29472	1242.24	5527.67	2
29475	1247.2	9576.07	4
29478	1247.85	8711.65	2
29479	1248.53	7784.61	2
29483	1252.4	8748.04	2
29497	1264.53	6617.49	2
29506	1274.03	6642.83	2
29507	1274.57	8343.54	2
29522	1289.61	7717.7	2
29523	1289.39	8389.55	2
29526	1294.94	6511.67	3
29544	1337.69	8216.75	2
29551	1347.65	10360.5	2
29555	1360.9	10020.2	2
29558	1367.48	8192.69	2
29563	1381.64	10055.2	3
29573	1415.72	9687.03	2
29576	1441.96	9798.96	2
29585	1476.92	8108.66	2
